# Mon Jul 22 14:51:12 2013
# Size integrated effective scattering matrix elements for BARE-GR-S
# model of Zubko, Dwek, and Arendt 2004, ApJS, 152, 211
# Model contains a mixture of PAH, graphtic, and silicate grains.
# S11(a), S12(a), S33(a), and S34(a) for each component were integrated
# over the appropriate ZDA size distribution and summed to produce the
# effective scattering matrix elements. Integrals were weighted by the
# appropriate C_sca(a): 
#    S11_eff = SUM(INT[S11(a,i)C_sca(a,i)f(a)]/INT[C_sca(i,a)f(a)])
#  
# Sij and all grain properties computed using:
#   Light Scattering by Multilayer Spherical Particles               
#   copyright (c) 1997-2002 by Victor Zubko,                         
#   NASA Goddard Space Flight Center, Greenbelt, MD                  
#  Converted to IDL by K. Misselt, 8/02, UofA.                       
# with exception of the PAH component.
# Graphitic component was computed for both perpendicular and parallel
# modes and summed using 2/3:1/3 after the Mie calculation.
#  
# Wave [um]       S11            S12            S33            S34
    0.001000  1.05652E-02   -2.74979E-03   -1.02011E-02    2.26254E-06
    0.001014  8.89155E-03   -2.31482E-03   -8.58494E-03   -9.71402E-07
    0.001027  8.87025E-03   -2.30877E-03   -8.56452E-03   -2.48611E-06
    0.001041  1.12737E-02   -2.93402E-03   -1.08852E-02   -1.52436E-06
    0.001055  1.19579E-02   -3.10878E-03   -1.15467E-02    1.98462E-07
    0.001069  1.41880E-02   -3.68902E-03   -1.37000E-02    5.88273E-06
    0.001084  1.47786E-02   -3.84497E-03   -1.42697E-02    8.85889E-07
    0.001099  9.69433E-03   -2.52285E-03   -9.36030E-03    1.01677E-06
    0.001113  1.19371E-02   -3.10616E-03   -1.15259E-02    5.08640E-06
    0.001128  1.07058E-02   -2.78463E-03   -1.03373E-02   -2.14891E-06
    0.001144  1.41409E-02   -3.67697E-03   -1.36545E-02   -2.35628E-06
    0.001159  1.38949E-02   -3.61604E-03   -1.34161E-02    4.31106E-06
    0.001175  9.82960E-03   -2.56438E-03   -9.48919E-03    3.04704E-06
    0.001191  8.50851E-03   -2.21570E-03   -8.21494E-03    1.81185E-06
    0.001207  1.35309E-02   -3.52291E-03   -1.30642E-02   -1.33513E-06
    0.001223  1.18147E-02   -3.07880E-03   -1.14064E-02    8.37360E-07
    0.001240  1.49411E-02   -3.88648E-03   -1.44267E-02    4.03683E-06
    0.001257  1.15921E-02   -3.01574E-03   -1.11929E-02   -7.59068E-07
    0.001274  1.64750E-02   -4.28729E-03   -1.59073E-02    1.65862E-06
    0.001291  1.79910E-02   -4.68212E-03   -1.73710E-02    5.05477E-06
    0.001308  1.68257E-02   -4.38185E-03   -1.62452E-02    9.77822E-07
    0.001326  1.77787E-02   -4.62981E-03   -1.71653E-02    6.21863E-06
    0.001344  1.37274E-02   -3.57231E-03   -1.32544E-02   -4.74014E-06
    0.001362  1.65668E-02   -4.32057E-03   -1.59934E-02    1.32369E-06
    0.001380  1.86497E-02   -4.85512E-03   -1.80066E-02    6.25517E-06
    0.001399  1.32398E-02   -3.45450E-03   -1.27812E-02    5.57697E-06
    0.001418  1.83853E-02   -4.77863E-03   -1.77534E-02   -4.99282E-06
    0.001437  1.80221E-02   -4.68589E-03   -1.74023E-02    4.35934E-06
    0.001457  1.96219E-02   -5.10468E-03   -1.89463E-02   -9.88769E-07
    0.001476  1.88907E-02   -4.91543E-03   -1.82399E-02   -9.29807E-07
    0.001496  2.06029E-02   -5.35012E-03   -1.98961E-02    8.79395E-07
    0.001516  1.77333E-02   -4.61363E-03   -1.71226E-02   -1.09797E-05
    0.001537  1.38684E-02   -3.61418E-03   -1.33892E-02   -5.09893E-06
    0.001558  1.79672E-02   -4.68002E-03   -1.73470E-02   -2.92285E-07
    0.001579  1.23996E-02   -3.23399E-03   -1.19704E-02   -9.06784E-06
    0.001600  2.55315E-02   -6.62576E-03   -2.46567E-02    7.57231E-06
    0.001622  2.45285E-02   -6.37286E-03   -2.36861E-02    4.12542E-06
    0.001644  1.87326E-02   -4.88148E-03   -1.80853E-02   -4.94501E-06
    0.001666  1.05965E-02   -2.76939E-03   -1.02282E-02   -2.88932E-06
    0.001689  1.70666E-02   -4.44328E-03   -1.64779E-02   -1.39446E-05
    0.001711  2.04727E-02   -5.32458E-03   -1.97681E-02    2.11549E-07
    0.001734  2.73378E-02   -7.12138E-03   -2.63939E-02    1.00611E-05
    0.001758  1.97083E-02   -5.13029E-03   -1.90288E-02    1.32246E-06
    0.001782  2.28383E-02   -5.94682E-03   -2.20504E-02   -5.03303E-06
    0.001806  3.08595E-02   -8.01733E-03   -2.97998E-02    1.80619E-05
    0.001830  1.73550E-02   -4.51219E-03   -1.67581E-02   -2.83208E-05
    0.001855  1.87172E-02   -4.87666E-03   -1.80707E-02   -3.48301E-06
    0.001880  3.11502E-02   -8.10599E-03   -3.00769E-02    2.22386E-05
    0.001905  2.27191E-02   -5.89539E-03   -2.19408E-02   -1.31240E-05
    0.001931  2.33048E-02   -6.07318E-03   -2.24995E-02   -1.48575E-05
    0.001957  2.21170E-02   -5.74394E-03   -2.13581E-02   -1.34742E-05
    0.001984  1.89624E-02   -4.94923E-03   -1.83051E-02   -5.26453E-06
    0.002011  1.93036E-02   -5.04934E-03   -1.86314E-02   -5.48070E-06
    0.002038  2.22623E-02   -5.80062E-03   -2.14932E-02   -1.21565E-05
    0.002065  2.35792E-02   -6.14245E-03   -2.27650E-02   -1.05019E-05
    0.002093  2.53831E-02   -6.58707E-03   -2.45134E-02   -2.25584E-05
    0.002122  2.36937E-02   -6.16145E-03   -2.28784E-02   -1.94044E-05
    0.002150  2.82866E-02   -7.35712E-03   -2.73130E-02   -1.71249E-05
    0.002179  2.65936E-02   -6.88876E-03   -2.56858E-02   -1.39407E-05
    0.002209  2.80317E-02   -7.31241E-03   -2.70610E-02    5.16208E-06
    0.002239  2.89106E-02   -7.54147E-03   -2.79095E-02    6.69080E-06
    0.002269  3.01267E-02   -7.85957E-03   -2.90833E-02    1.04345E-05
    0.002300  2.73893E-02   -7.13637E-03   -2.64431E-02   -1.00823E-05
    0.002331  3.27693E-02   -8.52823E-03   -3.16399E-02    1.62997E-05
    0.002362  2.90002E-02   -7.58730E-03   -2.79900E-02    1.23289E-05
    0.002394  3.49125E-02   -9.08583E-03   -3.37093E-02    1.41911E-06
    0.002427  2.55333E-02   -6.65834E-03   -2.46496E-02   -1.52130E-05
    0.002459  3.18843E-02   -8.28029E-03   -3.07903E-02   -1.66104E-05
    0.002493  2.87035E-02   -7.48930E-03   -2.77091E-02   -1.11647E-05
    0.002526  3.54409E-02   -9.22456E-03   -3.42191E-02    2.77310E-05
    0.002561  2.92750E-02   -7.66393E-03   -2.82538E-02   -2.26309E-06
    0.002595  3.14039E-02   -8.17463E-03   -3.03211E-02   -1.08604E-05
    0.002630  3.34811E-02   -8.72141E-03   -3.23250E-02   -1.61031E-05
    0.002666  3.34838E-02   -8.72052E-03   -3.23280E-02   -8.46174E-06
    0.002702  3.29974E-02   -8.59092E-03   -3.18592E-02   -1.30753E-05
    0.002738  3.44769E-02   -8.99672E-03   -3.32822E-02   -7.94395E-06
    0.002775  3.08625E-02   -8.07563E-03   -2.97870E-02   -1.20998E-05
    0.002813  3.68245E-02   -9.60483E-03   -3.55496E-02    8.58344E-06
    0.002851  4.04376E-02   -1.04995E-02   -3.90505E-02    5.19249E-06
    0.002890  3.12102E-02   -8.17303E-03   -3.01209E-02   -3.60589E-05
    0.002929  3.83958E-02   -1.00152E-02   -3.70665E-02   -1.68727E-05
    0.002968  3.99336E-02   -1.03857E-02   -3.85592E-02   -6.06591E-06
    0.003008  3.01159E-02   -7.88980E-03   -2.90638E-02   -3.50014E-05
    0.003049  3.20024E-02   -8.35321E-03   -3.08928E-02   -3.41561E-05
    0.003090  3.81921E-02   -9.97989E-03   -3.68650E-02    3.54521E-06
    0.003132  3.58090E-02   -9.35492E-03   -3.45653E-02   -2.31623E-05
    0.003174  3.49643E-02   -9.14167E-03   -3.37478E-02   -4.75261E-05
    0.003217  3.56639E-02   -9.32289E-03   -3.44236E-02   -3.75536E-05
    0.003261  3.59024E-02   -9.37606E-03   -3.46563E-02   -5.19126E-05
    0.003305  3.65884E-02   -9.55549E-03   -3.53183E-02   -5.03181E-05
    0.003350  4.41882E-02   -1.15245E-02   -4.26587E-02    3.22874E-05
    0.003395  4.57743E-02   -1.19313E-02   -4.41918E-02    2.76551E-05
    0.003441  4.29718E-02   -1.12376E-02   -4.14763E-02    1.08000E-05
    0.003487  4.28666E-02   -1.11730E-02   -4.13848E-02   -1.32023E-05
    0.003535  4.22412E-02   -1.10336E-02   -4.07745E-02   -1.08245E-05
    0.003582  4.39351E-02   -1.14847E-02   -4.24073E-02    1.64657E-06
    0.003631  4.30725E-02   -1.12357E-02   -4.15810E-02   -1.33192E-05
    0.003680  4.17795E-02   -1.09070E-02   -4.03305E-02   -2.21432E-05
    0.003730  4.26747E-02   -1.11240E-02   -4.11992E-02   -3.77718E-05
    0.003780  4.39208E-02   -1.15050E-02   -4.23870E-02   -3.17878E-05
    0.003831  4.30743E-02   -1.12415E-02   -4.15813E-02   -5.49286E-05
    0.003883  4.78507E-02   -1.25545E-02   -4.61743E-02   -2.92689E-05
    0.003936  5.42023E-02   -1.41545E-02   -5.23214E-02   -4.83041E-05
    0.003989  5.55762E-02   -1.45086E-02   -5.36488E-02   -7.43074E-05
    0.004043  4.70491E-02   -1.22783E-02   -4.54186E-02   -5.90304E-05
    0.004097  3.58512E-02   -9.34631E-03   -3.46114E-02   -3.34203E-05
    0.004153  4.10684E-02   -1.07351E-02   -3.96404E-02   -2.79933E-05
    0.004209  5.02185E-02   -1.31059E-02   -4.84781E-02   -8.52510E-05
    0.004266  1.53889E-02   -4.00145E-03   -1.48595E-02   -1.20068E-05
    0.004323  4.57098E-02   -1.19307E-02   -4.41251E-02   -8.18183E-05
    0.004382  2.67041E-02   -6.91001E-03   -2.57941E-02   -3.12927E-05
    0.004441  1.85453E-04   -4.81809E-05   -1.79083E-04    4.76201E-09
    0.004501  2.89273E-03   -7.51635E-04   -2.79335E-03   -1.71399E-06
    0.004562  1.12270E-02   -2.91172E-03   -1.08428E-02    7.59486E-06
    0.004624  1.15527E-02   -3.02168E-03   -1.11503E-02    1.14349E-05
    0.004686  1.56024E-02   -4.06684E-03   -1.50628E-02   -1.02623E-05
    0.004750  2.20589E-02   -5.73024E-03   -2.13012E-02    3.13200E-06
    0.004814  3.24606E-02   -8.43822E-03   -3.13439E-02    1.06039E-04
    0.004879  2.21272E-02   -5.79248E-03   -2.13550E-02   -2.51084E-05
    0.004945  2.95470E-02   -7.74872E-03   -2.85119E-02   -3.31796E-05
    0.005012  3.45077E-02   -8.96901E-03   -3.33203E-02    2.73760E-05
    0.005080  4.35109E-02   -1.11026E-02   -4.20694E-02   -5.49145E-05
    0.005148  5.33876E-02   -1.37170E-02   -5.15938E-02    2.52957E-05
    0.005218  5.53182E-02   -1.44039E-02   -5.34079E-02    8.27945E-05
    0.005289  5.07317E-02   -1.31071E-02   -4.90071E-02   -8.75087E-05
    0.005360  5.47020E-02   -1.41504E-02   -5.28373E-02    7.06978E-05
    0.005433  6.47844E-02   -1.68441E-02   -6.25536E-02    9.91416E-05
    0.005506  6.45069E-02   -1.66441E-02   -6.23191E-02   -1.34022E-04
    0.005580  5.40175E-02   -1.39081E-02   -5.21926E-02   -4.23624E-05
    0.005656  6.10474E-02   -1.57270E-02   -5.89807E-02   -1.09980E-04
    0.005732  6.03358E-02   -1.59149E-02   -5.81934E-02    2.13516E-04
    0.005810  5.36698E-02   -1.40060E-02   -5.18045E-02   -1.61825E-04
    0.005888  5.56111E-02   -1.49573E-02   -5.35572E-02    2.54204E-04
    0.005968  8.20020E-02   -2.13738E-02   -7.91617E-02   -4.31534E-05
    0.006049  7.39689E-02   -1.92187E-02   -7.14213E-02   -3.54576E-04
    0.006131  6.75745E-02   -1.75587E-02   -6.52454E-02   -4.23296E-04
    0.006213  7.92909E-02   -2.04960E-02   -7.65869E-02    9.99867E-05
    0.006297  5.22888E-02   -1.39215E-02   -5.03885E-02    2.62356E-04
    0.006383  7.19475E-02   -1.85558E-02   -6.95031E-02   -1.11138E-04
    0.006469  7.76272E-02   -2.02240E-02   -7.49358E-02    3.34485E-04
    0.006556  8.15481E-02   -2.12135E-02   -7.87299E-02    1.45950E-04
    0.006645  6.87422E-02   -1.84187E-02   -6.62188E-02   -3.01437E-04
    0.006735  8.40957E-02   -2.24235E-02   -8.10386E-02   -1.74435E-05
    0.006826  9.51319E-02   -2.47813E-02   -9.18339E-02    9.59945E-05
    0.006918  9.22559E-02   -2.35428E-02   -8.91842E-02   -3.60432E-04
    0.007012  1.20198E-01   -2.99694E-02   -1.16392E-01   -2.02732E-04
    0.007107  1.02962E-01   -2.67825E-02   -9.94002E-02    7.65711E-04
    0.007203  1.32490E-01   -3.39514E-02   -1.28050E-01    4.55931E-04
    0.007300  1.01966E-01   -2.67113E-02   -9.83879E-02   -5.44696E-05
    0.007399  1.04864E-01   -2.75249E-02   -1.01169E-01   -2.57873E-05
    0.007499  9.69654E-02   -2.52296E-02   -9.36065E-02   -4.47391E-04
    0.007600  1.05472E-01   -2.71755E-02   -1.01889E-01   -5.81428E-04
    0.007703  1.24887E-01   -3.22958E-02   -1.20607E-01    5.81644E-04
    0.007807  1.05456E-01   -2.81719E-02   -1.01592E-01    7.52819E-04
    0.007913  9.36288E-02   -2.43886E-02   -9.03672E-02   -4.85808E-04
    0.008020  9.59782E-02   -2.61303E-02   -9.23280E-02    4.17038E-04
    0.008128  1.22830E-01   -3.25815E-02   -1.18405E-01    6.54351E-04
    0.008238  1.34523E-01   -3.52319E-02   -1.29803E-01    2.09766E-04
    0.008350  1.21732E-01   -3.16841E-02   -1.17508E-01   -3.25138E-04
    0.008463  1.23185E-01   -3.21794E-02   -1.18869E-01   -2.12893E-04
    0.008577  9.44356E-02   -2.47621E-02   -9.10839E-02   -1.76157E-03
    0.008693  1.28422E-01   -3.31211E-02   -1.24038E-01   -6.78651E-05
    0.008810  1.54890E-01   -3.92493E-02   -1.49803E-01    8.16631E-05
    0.008930  1.14153E-01   -2.98229E-02   -1.10150E-01   -6.58412E-04
    0.009050  1.25900E-01   -3.31807E-02   -1.21414E-01   -3.36786E-04
    0.009173  1.18467E-01   -3.18148E-02   -1.14078E-01   -3.15133E-04
    0.009297  1.29369E-01   -3.39274E-02   -1.24794E-01   -6.02454E-04
    0.009423  1.49317E-01   -3.91956E-02   -1.44025E-01    6.71255E-04
    0.009550  1.62740E-01   -4.20143E-02   -1.57171E-01    1.01792E-03
    0.009679  1.12230E-01   -3.00951E-02   -1.08062E-01   -7.82599E-04
    0.009810  1.44400E-01   -3.90162E-02   -1.38978E-01    1.46816E-03
    0.009943  1.47999E-01   -3.86258E-02   -1.42824E-01    2.83713E-04
    0.010077  1.68397E-01   -4.43427E-02   -1.62407E-01    7.13337E-04
    0.010213  1.34066E-01   -3.54665E-02   -1.29233E-01   -7.28556E-04
    0.010351  1.65914E-01   -4.33066E-02   -1.60099E-01    1.12309E-04
    0.010491  1.39188E-01   -3.71806E-02   -1.34057E-01   -1.63724E-03
    0.010633  1.43739E-01   -3.86820E-02   -1.38368E-01    5.25903E-05
    0.010777  1.86291E-01   -4.73281E-02   -1.80129E-01   -1.35833E-04
    0.010923  1.39610E-01   -3.74481E-02   -1.34429E-01   -1.34857E-03
    0.011071  1.75590E-01   -4.59053E-02   -1.69427E-01    5.37609E-05
    0.011220  1.45172E-01   -3.99071E-02   -1.39517E-01   -3.00521E-04
    0.011372  1.62898E-01   -4.24167E-02   -1.57207E-01   -8.71494E-04
    0.011526  1.68716E-01   -4.57442E-02   -1.62319E-01    4.67860E-04
    0.011681  1.79880E-01   -4.74434E-02   -1.73435E-01    4.35445E-04
    0.011839  1.65305E-01   -4.38291E-02   -1.59310E-01   -1.71656E-03
    0.012000  1.66701E-01   -4.57415E-02   -1.60235E-01    8.74589E-04
    0.012162  1.82552E-01   -4.77634E-02   -1.76127E-01   -8.14747E-04
    0.012326  1.88011E-01   -5.11992E-02   -1.80838E-01    1.17295E-03
    0.012493  1.60699E-01   -4.30162E-02   -1.54753E-01   -2.08971E-03
    0.012662  2.05134E-01   -5.42460E-02   -1.97756E-01    7.19054E-04
    0.012833  1.94143E-01   -5.20853E-02   -1.86943E-01   -8.32962E-04
    0.013007  1.78010E-01   -4.83794E-02   -1.71226E-01   -1.08605E-03
    0.013183  2.02876E-01   -5.38844E-02   -1.95516E-01    6.66652E-04
    0.013361  1.96077E-01   -5.25929E-02   -1.88813E-01   -1.71231E-03
    0.013542  2.18910E-01   -5.87721E-02   -2.10806E-01    1.13734E-03
    0.013725  1.77546E-01   -4.93591E-02   -1.70470E-01   -2.12680E-03
    0.013910  2.19938E-01   -5.75834E-02   -2.12201E-01   -6.73447E-04
    0.014098  2.21899E-01   -6.06939E-02   -2.13363E-01   -1.74329E-04
    0.014289  2.07681E-01   -5.67691E-02   -1.99694E-01   -1.02797E-03
    0.014482  2.24463E-01   -6.01270E-02   -2.16188E-01   -7.62696E-04
    0.014678  2.23620E-01   -6.10561E-02   -2.15049E-01   -1.39313E-03
    0.014876  2.41941E-01   -6.52642E-02   -2.32909E-01    2.69593E-04
    0.015078  2.11925E-01   -5.96632E-02   -2.03288E-01   -1.72966E-03
    0.015282  2.37208E-01   -6.29931E-02   -2.28627E-01   -2.19883E-03
    0.015488  2.55914E-01   -6.99410E-02   -2.46110E-01    7.11273E-05
    0.015698  2.45248E-01   -6.77977E-02   -2.35624E-01   -1.33333E-03
    0.015910  2.52283E-01   -6.87926E-02   -2.42656E-01   -1.75533E-03
    0.016125  2.61478E-01   -7.17431E-02   -2.51381E-01   -1.38197E-03
    0.016343  2.70364E-01   -7.42305E-02   -2.59918E-01   -6.93038E-04
    0.016564  2.52201E-01   -7.10679E-02   -2.41920E-01   -2.11635E-03
    0.016788  2.70671E-01   -7.34500E-02   -2.60449E-01   -3.15098E-03
    0.017015  2.92714E-01   -8.02885E-02   -2.81438E-01   -8.49169E-04
    0.017245  2.90194E-01   -8.09930E-02   -2.78606E-01   -1.80148E-03
    0.017478  2.94608E-01   -8.16447E-02   -2.83009E-01   -2.60121E-03
    0.017715  3.04978E-01   -8.45151E-02   -2.92980E-01   -2.07098E-03
    0.017954  3.08407E-01   -8.63134E-02   -2.96032E-01   -1.87460E-03
    0.018197  3.01885E-01   -8.53015E-02   -2.89519E-01   -3.44256E-03
    0.018443  3.19960E-01   -8.83869E-02   -3.07444E-01   -4.00877E-03
    0.018693  3.39077E-01   -9.42041E-02   -3.25680E-01   -2.39591E-03
    0.018945  3.44245E-01   -9.69285E-02   -3.30265E-01   -2.98155E-03
    0.019201  3.51165E-01   -9.87517E-02   -3.36937E-01   -3.67684E-03
    0.019461  3.59074E-01   -1.01250E-01   -3.44449E-01   -3.50947E-03
    0.019724  3.61002E-01   -1.02669E-01   -3.46037E-01   -3.97409E-03
    0.019991  3.65737E-01   -1.03940E-01   -3.50580E-01   -5.41890E-03
    0.020261  3.83864E-01   -1.07868E-01   -3.68323E-01   -5.49582E-03
    0.020535  4.00814E-01   -1.13200E-01   -3.84438E-01   -4.67325E-03
    0.020813  4.11488E-01   -1.17215E-01   -3.94377E-01   -5.12286E-03
    0.021094  4.20041E-01   -1.20063E-01   -4.02449E-01   -5.71021E-03
    0.021380  4.26606E-01   -1.22505E-01   -4.08564E-01   -6.21244E-03
    0.021669  4.33015E-01   -1.24733E-01   -4.14569E-01   -7.24169E-03
    0.021962  4.46428E-01   -1.28137E-01   -4.27535E-01   -8.27237E-03
    0.022259  4.65514E-01   -1.33231E-01   -4.45937E-01   -8.31840E-03
    0.022560  4.82773E-01   -1.38814E-01   -4.62286E-01   -8.30294E-03
    0.022865  4.95539E-01   -1.43342E-01   -4.74249E-01   -8.86827E-03
    0.023174  5.05748E-01   -1.47007E-01   -4.83792E-01   -9.72863E-03
    0.023487  5.16082E-01   -1.50494E-01   -4.93510E-01   -1.08637E-02
    0.023805  5.30056E-01   -1.54596E-01   -5.06842E-01   -1.21152E-02
    0.024127  5.48353E-01   -1.59758E-01   -5.24380E-01   -1.29987E-02
    0.024453  5.67409E-01   -1.65565E-01   -5.42524E-01   -1.35542E-02
    0.024784  5.84487E-01   -1.71238E-01   -5.58635E-01   -1.43222E-02
    0.025119  6.00116E-01   -1.76495E-01   -5.73344E-01   -1.54915E-02
    0.025458  6.15231E-01   -1.81451E-01   -5.87601E-01   -1.68419E-02
    0.025803  6.31641E-01   -1.86623E-01   -6.03141E-01   -1.82912E-02
    0.026152  6.51110E-01   -1.92573E-01   -6.21640E-01   -1.97869E-02
    0.026505  6.71593E-01   -1.98925E-01   -6.41080E-01   -2.11953E-02
    0.026864  6.91663E-01   -2.05371E-01   -6.60055E-01   -2.26740E-02
    0.027227  7.11239E-01   -2.11718E-01   -6.78531E-01   -2.44228E-02
    0.027595  7.30646E-01   -2.17917E-01   -6.96865E-01   -2.63814E-02
    0.027968  7.50602E-01   -2.24135E-01   -7.15763E-01   -2.84065E-02
    0.028346  7.71830E-01   -2.30702E-01   -7.35885E-01   -3.04330E-02
    0.028730  7.94067E-01   -2.37685E-01   -7.56927E-01   -3.25783E-02
    0.029118  8.16354E-01   -2.44784E-01   -7.77974E-01   -3.49265E-02
    0.029512  8.38522E-01   -2.51834E-01   -7.98898E-01   -3.74890E-02
    0.029911  8.60186E-01   -2.58537E-01   -8.19390E-01   -4.02567E-02
    0.030316  8.82135E-01   -2.65227E-01   -8.40173E-01   -4.31530E-02
    0.030726  9.04490E-01   -2.71960E-01   -8.61358E-01   -4.61464E-02
    0.031141  9.26689E-01   -2.78521E-01   -8.82428E-01   -4.91698E-02
    0.031562  9.48226E-01   -2.84809E-01   -9.02888E-01   -5.21636E-02
    0.031989  9.68718E-01   -2.90826E-01   -9.22327E-01   -5.52069E-02
    0.032421  9.87845E-01   -2.96357E-01   -9.40474E-01   -5.83972E-02
    0.032860  1.00526E+00   -3.01154E-01   -9.57040E-01   -6.16639E-02
    0.033304  1.02131E+00   -3.05316E-01   -9.72373E-01   -6.49595E-02
    0.033755  1.01523E+00   -3.02029E-01   -9.66915E-01   -6.62485E-02
    0.034211  9.93346E-01   -2.93525E-01   -9.46583E-01   -6.60658E-02
    0.034674  9.66567E-01   -2.85712E-01   -9.20983E-01   -6.46735E-02
    0.035143  9.36968E-01   -2.78836E-01   -8.92187E-01   -6.23196E-02
    0.035618  9.45381E-01   -2.82951E-01   -8.99604E-01   -6.37027E-02
    0.036099  1.00484E+00   -3.02389E-01   -9.55479E-01   -7.03374E-02
    0.036588  1.06306E+00   -3.21466E-01   -1.01010E+00   -7.74497E-02
    0.037082  1.10816E+00   -3.35737E-01   -1.05249E+00   -8.39256E-02
    0.037584  1.15461E+00   -3.50416E-01   -1.09612E+00   -9.08481E-02
    0.038092  1.20492E+00   -3.66234E-01   -1.14335E+00   -9.85149E-02
    0.038607  1.25690E+00   -3.82539E-01   -1.19215E+00   -1.06631E-01
    0.039129  1.31449E+00   -4.00452E-01   -1.24622E+00   -1.15775E-01
    0.039658  1.37533E+00   -4.19477E-01   -1.30326E+00   -1.25793E-01
    0.040195  1.43845E+00   -4.39302E-01   -1.36233E+00   -1.36747E-01
    0.040738  1.50434E+00   -4.59928E-01   -1.42393E+00   -1.48808E-01
    0.041289  1.57218E+00   -4.81060E-01   -1.48727E+00   -1.61887E-01
    0.041847  1.66812E+00   -5.11911E-01   -1.57651E+00   -1.80318E-01
    0.042413  1.77097E+00   -5.44886E-01   -1.67198E+00   -2.01233E-01
    0.042987  1.88016E+00   -5.77615E-01   -1.77383E+00   -2.25191E-01
    0.043568  1.99600E+00   -6.08496E-01   -1.88287E+00   -2.52449E-01
    0.044157  2.11669E+00   -6.39600E-01   -1.99655E+00   -2.81901E-01
    0.044754  2.22831E+00   -6.67362E-01   -2.10170E+00   -3.10435E-01
    0.045359  2.33967E+00   -6.93983E-01   -2.20664E+00   -3.40098E-01
    0.045973  2.45406E+00   -7.19647E-01   -2.31467E+00   -3.71665E-01
    0.046594  2.57115E+00   -7.39820E-01   -2.42695E+00   -4.04826E-01
    0.047224  2.69118E+00   -7.58544E-01   -2.54238E+00   -4.39201E-01
    0.047863  2.80647E+00   -7.73531E-01   -2.65393E+00   -4.72404E-01
    0.048510  2.90394E+00   -7.81600E-01   -2.74943E+00   -5.00325E-01
    0.049166  3.00304E+00   -7.88718E-01   -2.84677E+00   -5.28068E-01
    0.049831  3.09820E+00   -7.92968E-01   -2.94089E+00   -5.54082E-01
    0.050505  3.18494E+00   -7.92839E-01   -3.02778E+00   -5.77007E-01
    0.051188  3.27203E+00   -7.91837E-01   -3.11511E+00   -5.99661E-01
    0.051880  3.35243E+00   -7.88021E-01   -3.19642E+00   -6.19996E-01
    0.052582  3.41843E+00   -7.79451E-01   -3.26456E+00   -6.35599E-01
    0.053293  3.48463E+00   -7.70020E-01   -3.33304E+00   -6.50675E-01
    0.054013  3.54511E+00   -7.58444E-01   -3.39631E+00   -6.63262E-01
    0.054744  3.57228E+00   -7.39141E-01   -3.42839E+00   -6.65615E-01
    0.055484  3.60068E+00   -7.20411E-01   -3.46154E+00   -6.67291E-01
    0.056234  3.62947E+00   -7.02238E-01   -3.49490E+00   -6.68376E-01
    0.056995  3.61921E+00   -6.79921E-01   -3.49040E+00   -6.59664E-01
    0.057765  3.60218E+00   -6.57529E-01   -3.47905E+00   -6.49422E-01
    0.058546  3.58573E+00   -6.35661E-01   -3.46799E+00   -6.39520E-01
    0.059338  3.57142E+00   -6.15624E-01   -3.45868E+00   -6.29726E-01
    0.060141  3.56138E+00   -5.98776E-01   -3.45310E+00   -6.20123E-01
    0.060954  3.55336E+00   -5.82770E-01   -3.44927E+00   -6.10782E-01
    0.061778  3.54696E+00   -5.67749E-01   -3.44679E+00   -6.01614E-01
    0.062613  3.56869E+00   -5.57424E-01   -3.47160E+00   -5.97214E-01
    0.063460  3.60176E+00   -5.49029E-01   -3.50728E+00   -5.95161E-01
    0.064318  3.63647E+00   -5.41105E-01   -3.54434E+00   -5.94004E-01
    0.065188  3.67242E+00   -5.33430E-01   -3.58238E+00   -5.93830E-01
    0.066069  3.68380E+00   -5.16417E-01   -3.59844E+00   -5.82617E-01
    0.066963  3.69281E+00   -4.98900E-01   -3.61203E+00   -5.70993E-01
    0.067868  3.70124E+00   -4.81410E-01   -3.62476E+00   -5.59726E-01
    0.068786  3.70873E+00   -4.63789E-01   -3.63635E+00   -5.48469E-01
    0.069716  3.61243E+00   -4.37935E-01   -3.54643E+00   -5.14695E-01
    0.070659  3.51638E+00   -4.13633E-01   -3.45626E+00   -4.81331E-01
    0.071614  3.43072E+00   -3.92071E-01   -3.37573E+00   -4.50353E-01
    0.072583  3.35336E+00   -3.73442E-01   -3.30276E+00   -4.21621E-01
    0.073564  3.25897E+00   -3.57314E-01   -3.21192E+00   -3.93641E-01
    0.074559  3.15901E+00   -3.42598E-01   -3.11482E+00   -3.68148E-01
    0.075567  3.06758E+00   -3.28196E-01   -3.02573E+00   -3.46297E-01
    0.076589  2.98527E+00   -3.13083E-01   -2.94547E+00   -3.27113E-01
    0.077625  2.90718E+00   -2.97205E-01   -2.86939E+00   -3.08089E-01
    0.078674  2.80825E+00   -2.82482E-01   -2.77267E+00   -2.83856E-01
    0.079738  2.71893E+00   -2.70420E-01   -2.68530E+00   -2.59026E-01
    0.080816  2.63576E+00   -2.62720E-01   -2.60340E+00   -2.35627E-01
    0.081909  2.55791E+00   -2.58417E-01   -2.52594E+00   -2.16938E-01
    0.083017  2.48831E+00   -2.54926E-01   -2.45614E+00   -2.05673E-01
    0.084140  2.43095E+00   -2.49222E-01   -2.39865E+00   -2.00693E-01
    0.085277  2.38412E+00   -2.39198E-01   -2.35219E+00   -1.95182E-01
    0.086430  2.34498E+00   -2.27892E-01   -2.31387E+00   -1.85839E-01
    0.087599  2.30926E+00   -2.19283E-01   -2.27897E+00   -1.72756E-01
    0.088784  2.27317E+00   -2.15229E-01   -2.24327E+00   -1.58762E-01
    0.089984  2.23419E+00   -2.13700E-01   -2.20413E+00   -1.46126E-01
    0.091201  2.19710E+00   -2.12384E-01   -2.16632E+00   -1.38862E-01
    0.092434  2.15475E+00   -2.07461E-01   -2.12318E+00   -1.33964E-01
    0.093684  2.11711E+00   -1.97832E-01   -2.08508E+00   -1.29304E-01
    0.094951  2.08165E+00   -1.85141E-01   -2.04951E+00   -1.20726E-01
    0.096235  2.03049E+00   -1.72506E-01   -1.99848E+00   -1.04855E-01
    0.097536  1.97538E+00   -1.63750E-01   -1.94317E+00   -8.55427E-02
    0.098855  1.88516E+00   -1.60822E-01   -1.85289E+00   -6.65142E-02
    0.100192  1.80125E+00   -1.60279E-01   -1.76833E+00   -5.41007E-02
    0.101547  1.72848E+00   -1.57702E-01   -1.69471E+00   -4.91661E-02
    0.102920  1.66141E+00   -1.50571E-01   -1.62684E+00   -4.57263E-02
    0.104312  1.59436E+00   -1.38978E-01   -1.55883E+00   -3.96726E-02
    0.105722  1.52302E+00   -1.26529E-01   -1.48662E+00   -2.89299E-02
    0.107152  1.44586E+00   -1.17005E-01   -1.40801E+00   -1.47496E-02
    0.108601  1.34545E+00   -1.12870E-01   -1.30598E+00   -7.51506E-04
    0.110069  1.24408E+00   -1.10337E-01   -1.20226E+00    8.60703E-03
    0.111558  1.15279E+00   -1.06050E-01   -1.10735E+00    1.20320E-02
    0.113066  1.04765E+00   -9.94097E-02   -9.98300E-01    1.22020E-02
    0.114595  9.49467E-01   -9.00477E-02   -8.94522E-01    1.38943E-02
    0.116145  8.81422E-01   -8.13322E-02   -8.20713E-01    1.59286E-02
    0.117715  8.19548E-01   -7.33923E-02   -7.51729E-01    1.88215E-02
    0.119307  7.64756E-01   -6.66405E-02   -6.89153E-01    2.08996E-02
    0.120921  7.13676E-01   -5.96249E-02   -6.28773E-01    2.23491E-02
    0.122556  6.67569E-01   -5.30342E-02   -5.72951E-01    2.34924E-02
    0.124213  6.24811E-01   -4.75300E-02   -5.19651E-01    2.37303E-02
    0.125893  5.86982E-01   -4.21236E-02   -4.71278E-01    2.19083E-02
    0.127595  5.53803E-01   -3.57398E-02   -4.28363E-01    2.00644E-02
    0.129320  5.23584E-01   -3.17417E-02   -3.92096E-01    1.95462E-02
    0.131069  4.95075E-01   -3.04351E-02   -3.59979E-01    1.83502E-02
    0.132841  4.68782E-01   -2.96787E-02   -3.34652E-01    1.67955E-02
    0.134638  4.43655E-01   -2.90801E-02   -3.13734E-01    1.74645E-02
    0.136458  4.19068E-01   -3.00609E-02   -2.94044E-01    1.93164E-02
    0.138304  3.96548E-01   -3.15282E-02   -2.77197E-01    1.98602E-02
    0.140174  3.76719E-01   -3.02149E-02   -2.61275E-01    1.90856E-02
    0.142069  3.60765E-01   -2.56562E-02   -2.47290E-01    1.89998E-02
    0.143990  3.46474E-01   -1.96584E-02   -2.32712E-01    2.08623E-02
    0.145937  3.31082E-01   -1.47637E-02   -2.14828E-01    2.33824E-02
    0.147911  3.16490E-01   -1.18342E-02   -1.96789E-01    2.32427E-02
    0.149911  3.05777E-01   -8.44684E-03   -1.82615E-01    1.98952E-02
    0.151938  2.97673E-01   -3.67684E-03   -1.72795E-01    1.65784E-02
    0.153993  2.89683E-01    1.21350E-03   -1.62557E-01    1.56713E-02
    0.156075  2.80126E-01    1.85898E-03   -1.54974E-01    1.51942E-02
    0.158186  2.71432E-01   -8.06952E-04   -1.52230E-01    1.29598E-02
    0.160325  2.66009E-01   -3.42160E-03   -1.52970E-01    9.69235E-03
    0.162493  2.65033E-01   -6.30135E-03   -1.59158E-01    7.04676E-03
    0.164690  2.66687E-01   -9.29638E-03   -1.67470E-01    5.06366E-03
    0.166917  2.74121E-01   -1.27674E-02   -1.79474E-01    3.41462E-03
    0.169174  2.85620E-01   -1.69094E-02   -1.94619E-01    1.50662E-03
    0.171462  3.02725E-01   -2.13534E-02   -2.13645E-01   -9.94959E-04
    0.173780  3.24121E-01   -2.60416E-02   -2.36086E-01   -4.13568E-03
    0.176130  3.48177E-01   -3.09696E-02   -2.61198E-01   -7.88405E-03
    0.178512  3.74733E-01   -3.59690E-02   -2.88874E-01   -1.22384E-02
    0.180926  4.03991E-01   -4.08146E-02   -3.19330E-01   -1.71677E-02
    0.183372  4.35577E-01   -4.53441E-02   -3.52290E-01   -2.24145E-02
    0.185852  4.68607E-01   -4.96817E-02   -3.86819E-01   -2.77725E-02
    0.188365  5.02551E-01   -5.37848E-02   -4.22393E-01   -3.32259E-02
    0.190912  5.33745E-01   -5.75310E-02   -4.57080E-01   -3.82372E-02
    0.193494  5.58959E-01   -6.05691E-02   -4.88351E-01   -4.20787E-02
    0.196110  5.83105E-01   -6.26067E-02   -5.18068E-01   -4.53850E-02
    0.198762  6.06236E-01   -6.38837E-02   -5.46079E-01   -4.80144E-02
    0.201450  6.24518E-01   -6.45053E-02   -5.69172E-01   -4.91722E-02
    0.204174  6.38181E-01   -6.43356E-02   -5.87339E-01   -4.90169E-02
    0.206935  6.50175E-01   -6.34246E-02   -6.02836E-01   -4.84116E-02
    0.209733  6.60488E-01   -6.16905E-02   -6.15471E-01   -4.72044E-02
    0.212569  6.68097E-01   -5.92491E-02   -6.24392E-01   -4.44470E-02
    0.215443  6.75966E-01   -5.67221E-02   -6.31711E-01   -4.06309E-02
    0.218357  6.83239E-01   -5.43351E-02   -6.36808E-01   -3.58815E-02
    0.221309  6.86516E-01   -5.19414E-02   -6.37391E-01   -3.02057E-02
    0.224302  6.86743E-01   -4.96995E-02   -6.34982E-01   -2.46145E-02
    0.227335  6.87908E-01   -4.73797E-02   -6.33180E-01   -1.92068E-02
    0.230409  6.89805E-01   -4.49524E-02   -6.32102E-01   -1.36802E-02
    0.233525  6.91340E-01   -4.29180E-02   -6.30522E-01   -7.89708E-03
    0.236683  6.91825E-01   -4.15681E-02   -6.27977E-01   -1.94600E-03
    0.239883  6.89793E-01   -4.08271E-02   -6.23761E-01    3.71277E-03
    0.243127  6.79260E-01   -4.06595E-02   -6.13071E-01    8.31249E-03
    0.246415  6.69840E-01   -4.05729E-02   -6.03607E-01    1.21746E-02
    0.249747  6.61505E-01   -4.02495E-02   -5.95444E-01    1.56197E-02
    0.253124  6.46850E-01   -3.99040E-02   -5.82212E-01    1.82289E-02
    0.256547  6.33647E-01   -3.97908E-02   -5.70188E-01    2.06203E-02
    0.260016  6.17912E-01   -3.99443E-02   -5.55906E-01    2.24709E-02
    0.263532  5.99959E-01   -4.01516E-02   -5.39670E-01    2.39511E-02
    0.267096  5.84308E-01   -4.03133E-02   -5.25501E-01    2.52667E-02
    0.270707  5.70530E-01   -4.02438E-02   -5.13000E-01    2.64037E-02
    0.274368  5.57470E-01   -3.98129E-02   -5.01235E-01    2.74775E-02
    0.278078  5.38480E-01   -3.91230E-02   -4.83904E-01    2.78991E-02
    0.281838  5.21100E-01   -3.85379E-02   -4.67897E-01    2.84275E-02
    0.285649  5.05257E-01   -3.81366E-02   -4.53126E-01    2.89933E-02
    0.289512  4.90497E-01   -3.78765E-02   -4.39193E-01    2.94239E-02
    0.293427  4.77047E-01   -3.76538E-02   -4.26473E-01    2.97573E-02
    0.297395  4.64678E-01   -3.72932E-02   -4.14708E-01    2.99272E-02
    0.301416  4.52690E-01   -3.66305E-02   -4.03396E-01    3.01588E-02
    0.305492  4.41170E-01   -3.58057E-02   -3.92628E-01    3.05270E-02
    0.309623  4.30280E-01   -3.50474E-02   -3.82418E-01    3.09981E-02
    0.313810  4.19992E-01   -3.44770E-02   -3.72555E-01    3.13511E-02
    0.318053  4.10146E-01   -3.40456E-02   -3.63060E-01    3.17781E-02
    0.322354  4.00725E-01   -3.36971E-02   -3.54010E-01    3.22098E-02
    0.326713  3.91742E-01   -3.33056E-02   -3.45399E-01    3.25482E-02
    0.331131  3.83780E-01   -3.27684E-02   -3.37784E-01    3.27669E-02
    0.335609  3.75974E-01   -3.20566E-02   -3.30396E-01    3.30911E-02
    0.340147  3.68459E-01   -3.13440E-02   -3.23273E-01    3.35254E-02
    0.344747  3.61479E-01   -3.07659E-02   -3.16585E-01    3.40369E-02
    0.349408  3.55672E-01   -3.03985E-02   -3.11044E-01    3.45051E-02
    0.354133  3.50092E-01   -3.01474E-02   -3.05755E-01    3.49974E-02
    0.358922  3.44679E-01   -2.99350E-02   -3.00669E-01    3.54307E-02
    0.363775  3.39349E-01   -2.96400E-02   -2.95693E-01    3.58303E-02
    0.368695  3.34705E-01   -2.92615E-02   -2.91461E-01    3.63281E-02
    0.373680  3.30410E-01   -2.88647E-02   -2.87582E-01    3.69192E-02
    0.378733  3.26348E-01   -2.85469E-02   -2.83868E-01    3.75888E-02
    0.383855  3.22640E-01   -2.83656E-02   -2.80430E-01    3.83389E-02
    0.389045  3.19254E-01   -2.83131E-02   -2.77306E-01    3.91284E-02
    0.394306  3.16002E-01   -2.83354E-02   -2.74374E-01    3.98740E-02
    0.399638  3.12838E-01   -2.83566E-02   -2.71570E-01    4.05544E-02
    0.405042  3.09846E-01   -2.82872E-02   -2.68815E-01    4.12786E-02
    0.410519  3.06990E-01   -2.81609E-02   -2.66164E-01    4.20475E-02
    0.416070  3.04338E-01   -2.80390E-02   -2.63642E-01    4.28855E-02
    0.421697  3.01928E-01   -2.79724E-02   -2.61278E-01    4.38084E-02
    0.427399  2.99747E-01   -2.79776E-02   -2.59110E-01    4.48033E-02
    0.433178  2.97753E-01   -2.80324E-02   -2.57152E-01    4.58278E-02
    0.439036  2.95749E-01   -2.80673E-02   -2.55137E-01    4.67492E-02
    0.444973  2.93800E-01   -2.80734E-02   -2.53175E-01    4.75130E-02
    0.450990  2.91972E-01   -2.80356E-02   -2.51282E-01    4.82734E-02
    0.457088  2.90311E-01   -2.79687E-02   -2.49458E-01    4.90955E-02
    0.463269  2.88847E-01   -2.79019E-02   -2.47717E-01    5.00085E-02
    0.469534  2.87591E-01   -2.78585E-02   -2.46082E-01    5.10245E-02
    0.475883  2.86529E-01   -2.78410E-02   -2.44577E-01    5.21315E-02
    0.482318  2.85651E-01   -2.78297E-02   -2.43210E-01    5.33091E-02
    0.488840  2.84725E-01   -2.78460E-02   -2.41929E-01    5.42787E-02
    0.495450  2.83589E-01   -2.79058E-02   -2.40653E-01    5.49100E-02
    0.502150  2.82533E-01   -2.79616E-02   -2.39397E-01    5.55681E-02
    0.508940  2.81565E-01   -2.80313E-02   -2.38154E-01    5.62640E-02
    0.515822  2.80690E-01   -2.81282E-02   -2.36935E-01    5.69944E-02
    0.522797  2.79908E-01   -2.82494E-02   -2.35757E-01    5.77455E-02
    0.529867  2.79220E-01   -2.83716E-02   -2.34641E-01    5.85073E-02
    0.537032  2.78637E-01   -2.84639E-02   -2.33599E-01    5.92890E-02
    0.544294  2.78175E-01   -2.85113E-02   -2.32634E-01    6.01235E-02
    0.551654  2.77743E-01   -2.85671E-02   -2.31767E-01    6.09197E-02
    0.559114  2.76984E-01   -2.87860E-02   -2.31025E-01    6.12963E-02
    0.566674  2.76250E-01   -2.90470E-02   -2.30281E-01    6.16619E-02
    0.574337  2.75545E-01   -2.93288E-02   -2.29550E-01    6.19767E-02
    0.582103  2.74881E-01   -2.95810E-02   -2.28863E-01    6.22226E-02
    0.589975  2.74276E-01   -2.97511E-02   -2.28248E-01    6.24182E-02
    0.597953  2.73740E-01   -2.98159E-02   -2.27715E-01    6.26141E-02
    0.606038  2.73272E-01   -2.97975E-02   -2.27248E-01    6.28635E-02
    0.614233  2.72862E-01   -2.97476E-02   -2.26821E-01    6.31871E-02
    0.622539  2.72504E-01   -2.97094E-02   -2.26416E-01    6.35539E-02
    0.630957  2.72209E-01   -2.96754E-02   -2.26049E-01    6.38953E-02
    0.639489  2.72002E-01   -2.95785E-02   -2.25770E-01    6.41512E-02
    0.648137  2.71911E-01   -2.93287E-02   -2.25632E-01    6.43182E-02
    0.656901  2.71904E-01   -2.88862E-02   -2.25643E-01    6.44270E-02
    0.665784  2.71383E-01   -2.84706E-02   -2.25601E-01    6.41058E-02
    0.674787  2.70860E-01   -2.79874E-02   -2.25555E-01    6.38696E-02
    0.683912  2.70331E-01   -2.74957E-02   -2.25477E-01    6.36985E-02
    0.693160  2.69829E-01   -2.69952E-02   -2.25401E-01    6.35164E-02
    0.702533  2.69296E-01   -2.64626E-02   -2.25370E-01    6.31779E-02
    0.712033  2.68559E-01   -2.59151E-02   -2.25368E-01    6.25448E-02
    0.721661  2.67882E-01   -2.52499E-02   -2.25486E-01    6.18782E-02
    0.731420  2.67213E-01   -2.45286E-02   -2.25670E-01    6.12505E-02
    0.741310  2.66509E-01   -2.38214E-02   -2.25848E-01    6.07040E-02
    0.751335  2.65780E-01   -2.31584E-02   -2.25990E-01    6.02339E-02
    0.761494  2.65087E-01   -2.25160E-02   -2.26127E-01    5.97980E-02
    0.771792  2.64507E-01   -2.18446E-02   -2.26334E-01    5.93506E-02
    0.782228  2.64079E-01   -2.11226E-02   -2.26674E-01    5.88799E-02
    0.792806  2.63768E-01   -2.04015E-02   -2.27151E-01    5.84115E-02
    0.803526  2.63358E-01   -1.98527E-02   -2.27643E-01    5.79248E-02
    0.814392  2.62654E-01   -1.96243E-02   -2.28001E-01    5.73909E-02
    0.825404  2.61906E-01   -1.95864E-02   -2.28322E-01    5.69101E-02
    0.836566  2.61189E-01   -1.96725E-02   -2.28625E-01    5.64511E-02
    0.847878  2.60594E-01   -1.98101E-02   -2.28965E-01    5.59832E-02
    0.859343  2.60163E-01   -1.99733E-02   -2.29387E-01    5.54904E-02
    0.870964  2.59855E-01   -2.02070E-02   -2.29896E-01    5.49744E-02
    0.882741  2.59565E-01   -2.06011E-02   -2.30445E-01    5.44482E-02
    0.894678  2.59196E-01   -2.12244E-02   -2.30965E-01    5.39206E-02
    0.906776  2.58591E-01   -2.21374E-02   -2.31314E-01    5.33570E-02
    0.919038  2.57848E-01   -2.32446E-02   -2.31526E-01    5.27562E-02
    0.931465  2.57132E-01   -2.44197E-02   -2.31701E-01    5.21231E-02
    0.944061  2.56482E-01   -2.56136E-02   -2.31864E-01    5.14456E-02
    0.956827  2.55883E-01   -2.68183E-02   -2.32018E-01    5.07181E-02
    0.969765  2.55282E-01   -2.80580E-02   -2.32139E-01    4.99390E-02
    0.982879  2.54620E-01   -2.93607E-02   -2.32190E-01    4.91072E-02
    0.996170  2.53871E-01   -3.07310E-02   -2.32150E-01    4.82213E-02
    1.009640  2.52958E-01   -3.21764E-02   -2.31941E-01    4.72797E-02
    1.023290  2.51979E-01   -3.36391E-02   -2.31641E-01    4.62911E-02
    1.037130  2.50995E-01   -3.50771E-02   -2.31299E-01    4.52636E-02
    1.051150  2.50006E-01   -3.64713E-02   -2.30915E-01    4.42028E-02
    1.065370  2.48988E-01   -3.78143E-02   -2.30468E-01    4.31082E-02
    1.079780  2.47913E-01   -3.91087E-02   -2.29937E-01    4.19742E-02
    1.094380  2.46761E-01   -4.03603E-02   -2.29311E-01    4.07955E-02
    1.109170  2.45538E-01   -4.15715E-02   -2.28598E-01    3.95733E-02
    1.124170  2.44264E-01   -4.27371E-02   -2.27825E-01    3.83187E-02
    1.139380  2.42886E-01   -4.38613E-02   -2.26944E-01    3.70556E-02
    1.154780  2.41475E-01   -4.49148E-02   -2.26018E-01    3.57969E-02
    1.170400  2.40035E-01   -4.58844E-02   -2.25053E-01    3.45497E-02
    1.186220  2.38542E-01   -4.67683E-02   -2.24022E-01    3.33139E-02
    1.202260  2.36976E-01   -4.75709E-02   -2.22907E-01    3.20851E-02
    1.218520  2.35328E-01   -4.82976E-02   -2.21703E-01    3.08613E-02
    1.235000  2.33610E-01   -4.89495E-02   -2.20425E-01    2.96475E-02
    1.251700  2.31854E-01   -4.95235E-02   -2.19102E-01    2.84576E-02
    1.268630  2.30078E-01   -5.00128E-02   -2.17752E-01    2.73118E-02
    1.285780  2.28272E-01   -5.04015E-02   -2.16361E-01    2.62134E-02
    1.303170  2.26424E-01   -5.06854E-02   -2.14915E-01    2.51666E-02
    1.320790  2.24475E-01   -5.08632E-02   -2.13353E-01    2.41701E-02
    1.338650  2.22443E-01   -5.09434E-02   -2.11692E-01    2.32170E-02
    1.356750  2.20323E-01   -5.09341E-02   -2.09928E-01    2.23020E-02
    1.375100  2.18113E-01   -5.08420E-02   -2.08060E-01    2.14222E-02
    1.393690  2.15791E-01   -5.06701E-02   -2.06067E-01    2.05788E-02
    1.412540  2.13386E-01   -5.04219E-02   -2.03977E-01    1.97716E-02
    1.431640  2.10901E-01   -5.01002E-02   -2.01793E-01    1.90007E-02
    1.451000  2.08336E-01   -4.97092E-02   -1.99514E-01    1.82641E-02
    1.470620  2.05670E-01   -4.92567E-02   -1.97118E-01    1.75577E-02
    1.490500  2.02908E-01   -4.87488E-02   -1.94611E-01    1.68769E-02
    1.510660  2.00061E-01   -4.81920E-02   -1.92007E-01    1.62186E-02
    1.531090  1.97132E-01   -4.75934E-02   -1.89309E-01    1.55794E-02
    1.551790  1.94127E-01   -4.69597E-02   -1.86524E-01    1.49563E-02
    1.572780  1.91066E-01   -4.63012E-02   -1.83673E-01    1.43452E-02
    1.594040  1.87941E-01   -4.56181E-02   -1.80749E-01    1.37472E-02
    1.615600  1.84761E-01   -4.49154E-02   -1.77762E-01    1.31613E-02
    1.637440  1.81535E-01   -4.41973E-02   -1.74721E-01    1.25873E-02
    1.659590  1.78271E-01   -4.34675E-02   -1.71634E-01    1.20254E-02
    1.682030  1.74979E-01   -4.27296E-02   -1.68513E-01    1.14759E-02
    1.704770  1.71670E-01   -4.19872E-02   -1.65369E-01    1.09382E-02
    1.727830  1.68356E-01   -4.12433E-02   -1.62214E-01    1.04128E-02
    1.751190  1.65045E-01   -4.05008E-02   -1.59056E-01    9.90011E-03
    1.774870  1.61746E-01   -3.97621E-02   -1.55904E-01    9.40053E-03
    1.798870  1.58456E-01   -3.90291E-02   -1.52756E-01    8.91429E-03
    1.823200  1.55199E-01   -3.83045E-02   -1.49636E-01    8.44216E-03
    1.847850  1.51984E-01   -3.75905E-02   -1.46553E-01    7.98462E-03
    1.872840  1.48820E-01   -3.68889E-02   -1.43515E-01    7.54205E-03
    1.898160  1.45714E-01   -3.62013E-02   -1.40530E-01    7.11472E-03
    1.923830  1.42668E-01   -3.55300E-02   -1.37601E-01    6.70193E-03
    1.949840  1.39692E-01   -3.48759E-02   -1.34737E-01    6.30438E-03
    1.976210  1.36795E-01   -3.42401E-02   -1.31946E-01    5.92283E-03
    2.002930  1.33983E-01   -3.36237E-02   -1.29236E-01    5.55737E-03
    2.030020  1.31260E-01   -3.30276E-02   -1.26610E-01    5.20800E-03
    2.057470  1.28631E-01   -3.24527E-02   -1.24074E-01    4.87466E-03
    2.085290  1.26101E-01   -3.19007E-02   -1.21633E-01    4.55671E-03
    2.113490  1.23673E-01   -3.13715E-02   -1.19288E-01    4.25429E-03
    2.142070  1.21344E-01   -3.08640E-02   -1.17039E-01    3.96775E-03
    2.171030  1.19119E-01   -3.03791E-02   -1.14890E-01    3.69654E-03
    2.200390  1.16999E-01   -2.99173E-02   -1.12841E-01    3.44020E-03
    2.230150  1.14980E-01   -2.94782E-02   -1.10889E-01    3.19810E-03
    2.260300  1.13066E-01   -2.90622E-02   -1.09039E-01    2.97000E-03
    2.290870  1.11255E-01   -2.86691E-02   -1.07287E-01    2.75516E-03
    2.321850  1.09548E-01   -2.82982E-02   -1.05636E-01    2.55350E-03
    2.353240  1.07943E-01   -2.79493E-02   -1.04084E-01    2.36451E-03
    2.385060  1.06438E-01   -2.76217E-02   -1.02628E-01    2.18768E-03
    2.417320  1.05031E-01   -2.73148E-02   -1.01267E-01    2.02247E-03
    2.450000  1.03714E-01   -2.70277E-02   -9.99931E-02    1.86775E-03
    2.483130  1.02490E-01   -2.67601E-02   -9.88083E-02    1.72350E-03
    2.516710  1.01358E-01   -2.65116E-02   -9.77136E-02    1.58942E-03
    2.550740  1.00310E-01   -2.62809E-02   -9.67002E-02    1.46485E-03
    2.585230  9.93419E-02   -2.60671E-02   -9.57647E-02    1.34929E-03
    2.620190  9.84508E-02   -2.58695E-02   -9.49034E-02    1.24220E-03
    2.655620  9.76323E-02   -2.56871E-02   -9.41125E-02    1.14306E-03
    2.691530  9.68824E-02   -2.55193E-02   -9.33882E-02    1.05140E-03
    2.727930  9.61975E-02   -2.53651E-02   -9.27268E-02    9.66718E-04
    2.764820  9.55727E-02   -2.52238E-02   -9.21239E-02    8.88561E-04
    2.802210  9.50037E-02   -2.50943E-02   -9.15748E-02    8.16469E-04
    2.840100  9.44885E-02   -2.49762E-02   -9.10780E-02    7.50039E-04
    2.878500  9.40236E-02   -2.48686E-02   -9.06301E-02    6.88876E-04
    2.917430  9.36057E-02   -2.47711E-02   -9.02277E-02    6.32603E-04
    2.956880  9.32312E-02   -2.46826E-02   -8.98675E-02    5.80866E-04
    2.996860  9.28971E-02   -2.46028E-02   -8.95465E-02    5.33328E-04
    3.037390  9.26003E-02   -2.45309E-02   -8.92616E-02    4.89678E-04
    3.078460  9.23379E-02   -2.44664E-02   -8.90101E-02    4.49617E-04
    3.120090  9.21071E-02   -2.44087E-02   -8.87893E-02    4.12788E-04
    3.162280  9.19056E-02   -2.43572E-02   -8.85968E-02    3.78953E-04
    3.205040  9.17308E-02   -2.43116E-02   -8.84303E-02    3.47962E-04
    3.248380  9.15805E-02   -2.42712E-02   -8.82876E-02    3.19588E-04
    3.292300  9.14527E-02   -2.42357E-02   -8.81665E-02    2.93610E-04
    3.336820  9.13452E-02   -2.42046E-02   -8.80653E-02    2.69832E-04
    3.381950  9.12565E-02   -2.41776E-02   -8.79821E-02    2.48081E-04
    3.427680  9.11846E-02   -2.41544E-02   -8.79153E-02    2.28140E-04
    3.474030  9.11282E-02   -2.41345E-02   -8.78634E-02    2.09875E-04
    3.521010  9.10856E-02   -2.41178E-02   -8.78250E-02    1.93178E-04
    3.568620  9.10557E-02   -2.41039E-02   -8.77987E-02    1.77917E-04
    3.616870  9.10371E-02   -2.40926E-02   -8.77834E-02    1.63971E-04
    3.665780  9.10287E-02   -2.40836E-02   -8.77779E-02    1.51198E-04
    3.715350  9.10294E-02   -2.40767E-02   -8.77813E-02    1.39487E-04
    3.765590  9.10384E-02   -2.40718E-02   -8.77926E-02    1.28789E-04
    3.816510  9.10546E-02   -2.40686E-02   -8.78109E-02    1.19017E-04
    3.868120  9.10774E-02   -2.40670E-02   -8.78355E-02    1.10089E-04
    3.920430  9.11064E-02   -2.40667E-02   -8.78661E-02    1.01899E-04
    3.973440  9.11406E-02   -2.40678E-02   -8.79017E-02    9.44140E-05
    4.027170  9.11792E-02   -2.40699E-02   -8.79414E-02    8.75760E-05
    4.081630  9.12216E-02   -2.40731E-02   -8.79849E-02    8.13277E-05
    4.136820  9.12674E-02   -2.40772E-02   -8.80316E-02    7.56139E-05
    4.192760  9.13164E-02   -2.40820E-02   -8.80814E-02    7.03557E-05
    4.249460  9.13680E-02   -2.40875E-02   -8.81335E-02    6.55445E-05
    4.306920  9.14215E-02   -2.40937E-02   -8.81876E-02    6.11402E-05
    4.365160  9.14768E-02   -2.41004E-02   -8.82433E-02    5.71065E-05
    4.424190  9.15335E-02   -2.41076E-02   -8.83003E-02    5.34102E-05
    4.484010  9.15920E-02   -2.41151E-02   -8.83589E-02    5.00235E-05
    4.544650  9.16513E-02   -2.41231E-02   -8.84184E-02    4.69177E-05
    4.606100  9.17112E-02   -2.41313E-02   -8.84784E-02    4.40675E-05
    4.668390  9.17716E-02   -2.41397E-02   -8.85388E-02    4.14499E-05
    4.731510  9.18322E-02   -2.41484E-02   -8.85994E-02    3.90439E-05
    4.795490  9.18932E-02   -2.41572E-02   -8.86602E-02    3.68345E-05
    4.860340  9.19545E-02   -2.41661E-02   -8.87214E-02    3.48068E-05
    4.926060  9.20155E-02   -2.41752E-02   -8.87824E-02    3.29400E-05
    4.992680  9.20763E-02   -2.41843E-02   -8.88429E-02    3.12195E-05
    5.060190  9.21369E-02   -2.41934E-02   -8.89033E-02    2.96540E-05
    5.128610  9.21969E-02   -2.42026E-02   -8.89631E-02    2.82102E-05
    5.197970  9.22567E-02   -2.42117E-02   -8.90225E-02    2.68921E-05
    5.268250  9.23160E-02   -2.42208E-02   -8.90816E-02    2.56916E-05
    5.339490  9.23745E-02   -2.42299E-02   -8.91398E-02    2.45792E-05
    5.411700  9.24322E-02   -2.42389E-02   -8.91971E-02    2.35468E-05
    5.484870  9.24890E-02   -2.42478E-02   -8.92536E-02    2.25875E-05
    5.559040  9.25452E-02   -2.42567E-02   -8.93095E-02    2.17123E-05
    5.634210  9.26007E-02   -2.42655E-02   -8.93646E-02    2.09061E-05
    5.710400  9.26557E-02   -2.42741E-02   -8.94192E-02    2.01776E-05
    5.787620  9.27096E-02   -2.42827E-02   -8.94728E-02    1.94978E-05
    5.865880  9.27625E-02   -2.42911E-02   -8.95254E-02    1.88617E-05
    5.945200  9.28146E-02   -2.42994E-02   -8.95772E-02    1.82730E-05
    6.025600  9.28660E-02   -2.43076E-02   -8.96282E-02    1.77270E-05
    6.107080  9.29162E-02   -2.43157E-02   -8.96780E-02    1.72138E-05
    6.189660  9.29653E-02   -2.43236E-02   -8.97268E-02    1.67302E-05
    6.273360  9.30140E-02   -2.43313E-02   -8.97751E-02    1.62383E-05
    6.358190  9.30616E-02   -2.43389E-02   -8.98225E-02    1.57674E-05
    6.444170  9.31088E-02   -2.43464E-02   -8.98693E-02    1.52720E-05
    6.531310  9.31549E-02   -2.43538E-02   -8.99151E-02    1.47986E-05
    6.619620  9.32006E-02   -2.43609E-02   -8.99605E-02    1.43130E-05
    6.709140  9.32454E-02   -2.43679E-02   -9.00050E-02    1.38466E-05
    6.799860  9.32901E-02   -2.43747E-02   -9.00495E-02    1.33658E-05
    6.891810  9.33337E-02   -2.43814E-02   -9.00928E-02    1.29058E-05
    6.985000  9.33775E-02   -2.43879E-02   -9.01365E-02    1.24887E-05
    7.079460  9.34205E-02   -2.43942E-02   -9.01793E-02    1.20939E-05
    7.175190  9.34642E-02   -2.44003E-02   -9.02230E-02    1.19068E-05
    7.272210  9.35067E-02   -2.44063E-02   -9.02654E-02    1.17321E-05
    7.370550  9.35505E-02   -2.44120E-02   -9.03092E-02    1.20444E-05
    7.470220  9.35935E-02   -2.44175E-02   -9.03523E-02    1.24480E-05
    7.571230  9.36363E-02   -2.44229E-02   -9.03951E-02    1.36138E-05
    7.673620  9.36785E-02   -2.44281E-02   -9.04374E-02    1.52732E-05
    7.777380  9.37194E-02   -2.44331E-02   -9.04784E-02    1.72894E-05
    7.882550  9.37594E-02   -2.44381E-02   -9.05185E-02    2.04273E-05
    7.989140  9.37981E-02   -2.44430E-02   -9.05573E-02    2.32814E-05
    8.097170  9.38325E-02   -2.44481E-02   -9.05916E-02    2.77426E-05
    8.206660  9.38662E-02   -2.44531E-02   -9.06251E-02    3.20625E-05
    8.317640  9.38973E-02   -2.44583E-02   -9.06559E-02    3.61425E-05
    8.430110  9.39249E-02   -2.44636E-02   -9.06831E-02    3.98013E-05
    8.544110  9.39521E-02   -2.44687E-02   -9.07098E-02    4.28327E-05
    8.659640  9.39801E-02   -2.44737E-02   -9.07375E-02    4.57029E-05
    8.776740  9.40091E-02   -2.44787E-02   -9.07662E-02    4.89815E-05
    8.895420  9.40384E-02   -2.44837E-02   -9.07951E-02    5.29865E-05
    9.015710  9.40667E-02   -2.44890E-02   -9.08231E-02    5.77412E-05
    9.137630  9.40930E-02   -2.44946E-02   -9.08488E-02    6.30723E-05
    9.261190  9.41159E-02   -2.45004E-02   -9.08709E-02    6.86433E-05
    9.386420  9.41341E-02   -2.45062E-02   -9.08882E-02    7.39952E-05
    9.513350  9.41470E-02   -2.45118E-02   -9.09001E-02    7.86313E-05
    9.641990  9.41561E-02   -2.45169E-02   -9.09081E-02    8.23549E-05
    9.772370  9.41628E-02   -2.45215E-02   -9.09138E-02    8.48974E-05
    9.904520  9.41695E-02   -2.45258E-02   -9.09196E-02    8.68261E-05
   10.038500  9.41769E-02   -2.45299E-02   -9.09261E-02    8.84879E-05
   10.174200  9.41848E-02   -2.45339E-02   -9.09333E-02    9.03391E-05
   10.311800  9.41911E-02   -2.45378E-02   -9.09387E-02    9.28701E-05
   10.451200  9.41916E-02   -2.45415E-02   -9.09382E-02    9.52846E-05
   10.592500  9.41877E-02   -2.45449E-02   -9.09333E-02    9.66209E-05
   10.735800  9.41821E-02   -2.45481E-02   -9.09266E-02    9.66845E-05
   10.880900  9.41777E-02   -2.45511E-02   -9.09212E-02    9.56113E-05
   11.028100  9.41757E-02   -2.45540E-02   -9.09183E-02    9.43601E-05
   11.177200  9.41730E-02   -2.45568E-02   -9.09149E-02    9.27263E-05
   11.328400  9.41709E-02   -2.45596E-02   -9.09119E-02    9.06678E-05
   11.481500  9.41697E-02   -2.45622E-02   -9.09100E-02    8.81703E-05
   11.636800  9.41699E-02   -2.45648E-02   -9.09095E-02    8.57726E-05
   11.794200  9.41691E-02   -2.45672E-02   -9.09079E-02    8.30936E-05
   11.953600  9.41678E-02   -2.45697E-02   -9.09060E-02    8.00074E-05
   12.115300  9.41678E-02   -2.45720E-02   -9.09054E-02    7.60162E-05
   12.279100  9.41704E-02   -2.45742E-02   -9.09074E-02    7.18696E-05
   12.445100  9.41747E-02   -2.45764E-02   -9.09113E-02    6.77482E-05
   12.613400  9.41793E-02   -2.45785E-02   -9.09155E-02    6.35158E-05
   12.784000  9.41858E-02   -2.45805E-02   -9.09218E-02    5.88887E-05
   12.956900  9.41939E-02   -2.45825E-02   -9.09296E-02    5.42651E-05
   13.132100  9.42047E-02   -2.45844E-02   -9.09403E-02    4.98299E-05
   13.309700  9.42167E-02   -2.45863E-02   -9.09521E-02    4.55587E-05
   13.489600  9.42293E-02   -2.45881E-02   -9.09647E-02    4.14552E-05
   13.672000  9.42450E-02   -2.45898E-02   -9.09806E-02    3.74907E-05
   13.856900  9.42620E-02   -2.45915E-02   -9.09977E-02    3.40375E-05
   14.044300  9.42804E-02   -2.45931E-02   -9.10164E-02    3.11608E-05
   14.234200  9.42993E-02   -2.45947E-02   -9.10354E-02    2.92284E-05
   14.426700  9.43176E-02   -2.45963E-02   -9.10540E-02    2.76667E-05
   14.621800  9.43348E-02   -2.45978E-02   -9.10714E-02    2.69665E-05
   14.819500  9.43510E-02   -2.45993E-02   -9.10877E-02    2.63839E-05
   15.019900  9.43658E-02   -2.46008E-02   -9.11027E-02    2.60654E-05
   15.223000  9.43797E-02   -2.46023E-02   -9.11166E-02    2.59121E-05
   15.428800  9.43929E-02   -2.46038E-02   -9.11301E-02    2.58249E-05
   15.637500  9.44054E-02   -2.46052E-02   -9.11425E-02    2.58885E-05
   15.848900  9.44173E-02   -2.46066E-02   -9.11544E-02    2.60081E-05
   16.063200  9.44284E-02   -2.46080E-02   -9.11656E-02    2.62273E-05
   16.280500  9.44392E-02   -2.46094E-02   -9.11765E-02    2.64479E-05
   16.500601  9.44491E-02   -2.46108E-02   -9.11863E-02    2.68396E-05
   16.723700  9.44587E-02   -2.46121E-02   -9.11959E-02    2.72311E-05
   16.949900  9.44675E-02   -2.46134E-02   -9.12046E-02    2.76427E-05
   17.179100  9.44760E-02   -2.46147E-02   -9.12131E-02    2.80317E-05
   17.411400  9.44837E-02   -2.46159E-02   -9.12208E-02    2.85477E-05
   17.646799  9.44912E-02   -2.46171E-02   -9.12281E-02    2.90695E-05
   17.885500  9.44978E-02   -2.46184E-02   -9.12347E-02    2.95514E-05
   18.127300  9.45040E-02   -2.46195E-02   -9.12408E-02    3.00090E-05
   18.372400  9.45096E-02   -2.46207E-02   -9.12463E-02    3.05014E-05
   18.620899  9.45147E-02   -2.46218E-02   -9.12512E-02    3.10210E-05
   18.872700  9.45192E-02   -2.46229E-02   -9.12557E-02    3.14609E-05
   19.127899  9.45229E-02   -2.46240E-02   -9.12592E-02    3.17646E-05
   19.386499  9.45266E-02   -2.46250E-02   -9.12627E-02    3.20581E-05
   19.648701  9.45291E-02   -2.46259E-02   -9.12651E-02    3.22312E-05
   19.914400  9.45316E-02   -2.46269E-02   -9.12674E-02    3.24047E-05
   20.183701  9.45336E-02   -2.46278E-02   -9.12693E-02    3.22859E-05
   20.456600  9.45359E-02   -2.46286E-02   -9.12713E-02    3.20219E-05
   20.733200  9.45384E-02   -2.46295E-02   -9.12737E-02    3.17525E-05
   21.013599  9.45408E-02   -2.46303E-02   -9.12760E-02    3.14901E-05
   21.297701  9.45430E-02   -2.46311E-02   -9.12781E-02    3.11492E-05
   21.585699  9.45455E-02   -2.46318E-02   -9.12805E-02    3.07744E-05
   21.877600  9.45479E-02   -2.46326E-02   -9.12828E-02    3.04256E-05
   22.173500  9.45503E-02   -2.46333E-02   -9.12850E-02    3.01170E-05
   22.473301  9.45521E-02   -2.46340E-02   -9.12867E-02    2.97301E-05
   22.777201  9.45542E-02   -2.46347E-02   -9.12887E-02    2.92159E-05
   23.085199  9.45564E-02   -2.46353E-02   -9.12909E-02    2.87095E-05
   23.397400  9.45589E-02   -2.46359E-02   -9.12932E-02    2.82672E-05
   23.713699  9.45610E-02   -2.46366E-02   -9.12952E-02    2.78390E-05
   24.034401  9.45632E-02   -2.46372E-02   -9.12973E-02    2.73636E-05
   24.359400  9.45654E-02   -2.46378E-02   -9.12995E-02    2.68747E-05
   24.688801  9.45676E-02   -2.46383E-02   -9.13016E-02    2.64747E-05
   25.022699  9.45696E-02   -2.46389E-02   -9.13036E-02    2.60497E-05
   25.361000  9.45717E-02   -2.46394E-02   -9.13056E-02    2.55155E-05
   25.704000  9.45738E-02   -2.46400E-02   -9.13076E-02    2.49930E-05
   26.051500  9.45758E-02   -2.46405E-02   -9.13095E-02    2.44820E-05
   26.403799  9.45777E-02   -2.46410E-02   -9.13114E-02    2.39823E-05
   26.760900  9.45797E-02   -2.46415E-02   -9.13133E-02    2.34935E-05
   27.122700  9.45815E-02   -2.46419E-02   -9.13151E-02    2.30153E-05
   27.489500  9.45834E-02   -2.46424E-02   -9.13168E-02    2.25476E-05
   27.861200  9.45853E-02   -2.46428E-02   -9.13187E-02    2.20719E-05
   28.238001  9.45872E-02   -2.46433E-02   -9.13206E-02    2.16033E-05
   28.619801  9.45891E-02   -2.46437E-02   -9.13224E-02    2.11452E-05
   29.006800  9.45909E-02   -2.46441E-02   -9.13242E-02    2.06975E-05
   29.399099  9.45927E-02   -2.46445E-02   -9.13259E-02    2.02597E-05
   29.796600  9.45944E-02   -2.46449E-02   -9.13276E-02    1.98318E-05
   30.199499  9.45962E-02   -2.46453E-02   -9.13294E-02    1.93840E-05
   30.607901  9.45981E-02   -2.46456E-02   -9.13312E-02    1.89175E-05
   31.021799  9.45999E-02   -2.46460E-02   -9.13330E-02    1.84620E-05
   31.441299  9.46016E-02   -2.46463E-02   -9.13347E-02    1.80173E-05
   31.866400  9.46033E-02   -2.46467E-02   -9.13364E-02    1.75831E-05
   32.297298  9.46050E-02   -2.46470E-02   -9.13380E-02    1.71592E-05
   32.734100  9.46067E-02   -2.46473E-02   -9.13397E-02    1.67452E-05
   33.176701  9.46083E-02   -2.46476E-02   -9.13412E-02    1.63411E-05
   33.625301  9.46099E-02   -2.46479E-02   -9.13428E-02    1.59402E-05
   34.080002  9.46117E-02   -2.46482E-02   -9.13446E-02    1.55315E-05
   34.540901  9.46134E-02   -2.46485E-02   -9.13463E-02    1.51329E-05
   35.007999  9.46151E-02   -2.46488E-02   -9.13480E-02    1.47442E-05
   35.481300  9.46167E-02   -2.46491E-02   -9.13496E-02    1.43652E-05
   35.961102  9.46183E-02   -2.46493E-02   -9.13512E-02    1.39956E-05
   36.447399  9.46199E-02   -2.46496E-02   -9.13528E-02    1.36351E-05
   36.940300  9.46215E-02   -2.46498E-02   -9.13543E-02    1.32835E-05
   37.439800  9.46230E-02   -2.46501E-02   -9.13558E-02    1.29407E-05
   37.946098  9.46245E-02   -2.46503E-02   -9.13573E-02    1.26081E-05
   38.459202  9.46259E-02   -2.46506E-02   -9.13587E-02    1.22843E-05
   38.979198  9.46274E-02   -2.46508E-02   -9.13601E-02    1.19684E-05
   39.506302  9.46287E-02   -2.46510E-02   -9.13615E-02    1.16604E-05
   40.040501  9.46300E-02   -2.46512E-02   -9.13628E-02    1.13598E-05
   40.582001  9.46314E-02   -2.46514E-02   -9.13642E-02    1.10667E-05
   41.130798  9.46327E-02   -2.46516E-02   -9.13654E-02    1.07808E-05
   41.686901  9.46340E-02   -2.46518E-02   -9.13667E-02    1.04874E-05
   42.250599  9.46353E-02   -2.46520E-02   -9.13680E-02    1.01934E-05
   42.821999  9.46365E-02   -2.46522E-02   -9.13693E-02    9.90695E-06
   43.401001  9.46378E-02   -2.46524E-02   -9.13705E-02    9.62779E-06
   43.987900  9.46390E-02   -2.46525E-02   -9.13718E-02    9.35570E-06
   44.582699  9.46402E-02   -2.46527E-02   -9.13730E-02    9.09054E-06
   45.185600  9.46414E-02   -2.46529E-02   -9.13741E-02    8.83033E-06
   45.796600  9.46426E-02   -2.46530E-02   -9.13753E-02    8.56807E-06
   46.415901  9.46438E-02   -2.46532E-02   -9.13765E-02    8.31267E-06
   47.043499  9.46450E-02   -2.46534E-02   -9.13777E-02    8.06396E-06
   47.679699  9.46461E-02   -2.46535E-02   -9.13788E-02    7.82175E-06
   48.324402  9.46472E-02   -2.46537E-02   -9.13799E-02    7.58589E-06
   48.977901  9.46483E-02   -2.46538E-02   -9.13810E-02    7.35618E-06
   49.640202  9.46494E-02   -2.46539E-02   -9.13821E-02    7.13248E-06
   50.311401  9.46504E-02   -2.46541E-02   -9.13832E-02    6.91247E-06
   50.991798  9.46515E-02   -2.46542E-02   -9.13842E-02    6.69590E-06
   51.681301  9.46525E-02   -2.46543E-02   -9.13853E-02    6.48504E-06
   52.380100  9.46536E-02   -2.46545E-02   -9.13863E-02    6.27766E-06
   53.088402  9.46546E-02   -2.46546E-02   -9.13873E-02    6.07588E-06
   53.806301  9.46556E-02   -2.46547E-02   -9.13883E-02    5.87955E-06
   54.533901  9.46566E-02   -2.46548E-02   -9.13893E-02    5.68756E-06
   55.271301  9.46576E-02   -2.46549E-02   -9.13903E-02    5.50066E-06
   56.018700  9.46585E-02   -2.46550E-02   -9.13913E-02    5.31886E-06
   56.776199  9.46595E-02   -2.46551E-02   -9.13922E-02    5.14170E-06
   57.543999  9.46604E-02   -2.46552E-02   -9.13932E-02    4.96917E-06
   58.322102  9.46613E-02   -2.46553E-02   -9.13941E-02    4.80140E-06
   59.110802  9.46622E-02   -2.46554E-02   -9.13950E-02    4.63822E-06
   59.910099  9.46631E-02   -2.46555E-02   -9.13959E-02    4.47897E-06
   60.720200  9.46640E-02   -2.46556E-02   -9.13968E-02    4.32420E-06
   61.541302  9.46648E-02   -2.46557E-02   -9.13977E-02    4.17376E-06
   62.373501  9.46657E-02   -2.46558E-02   -9.13985E-02    4.02793E-06
   63.216900  9.46665E-02   -2.46559E-02   -9.13993E-02    3.88663E-06
   64.071800  9.46674E-02   -2.46560E-02   -9.14002E-02    3.74941E-06
   64.938202  9.46682E-02   -2.46560E-02   -9.14010E-02    3.61614E-06
   65.816299  9.46690E-02   -2.46561E-02   -9.14018E-02    3.48718E-06
   66.706299  9.46697E-02   -2.46562E-02   -9.14026E-02    3.36220E-06
   67.608299  9.46705E-02   -2.46563E-02   -9.14034E-02    3.24135E-06
   68.522499  9.46713E-02   -2.46563E-02   -9.14041E-02    3.12425E-06
   69.449097  9.46720E-02   -2.46564E-02   -9.14049E-02    3.01044E-06
   70.388199  9.46728E-02   -2.46565E-02   -9.14056E-02    2.90042E-06
   71.339996  9.46734E-02   -2.46565E-02   -9.14064E-02    2.79435E-06
   72.304703  9.46742E-02   -2.46566E-02   -9.14071E-02    2.69136E-06
   73.282501  9.46749E-02   -2.46567E-02   -9.14077E-02    2.59178E-06
   74.273399  9.46755E-02   -2.46567E-02   -9.14084E-02    2.49583E-06
   75.277802  9.46762E-02   -2.46568E-02   -9.14091E-02    2.40284E-06
   76.295700  9.46769E-02   -2.46569E-02   -9.14098E-02    2.31354E-06
   77.327400  9.46775E-02   -2.46569E-02   -9.14104E-02    2.22685E-06
   78.373001  9.46781E-02   -2.46570E-02   -9.14111E-02    2.14354E-06
   79.432800  9.46787E-02   -2.46570E-02   -9.14117E-02    2.06283E-06
   80.506897  9.46793E-02   -2.46571E-02   -9.14123E-02    1.98510E-06
   81.595596  9.46799E-02   -2.46571E-02   -9.14129E-02    1.91029E-06
   82.698997  9.46805E-02   -2.46572E-02   -9.14135E-02    1.83773E-06
   83.817200  9.46811E-02   -2.46572E-02   -9.14141E-02    1.76813E-06
   84.950600  9.46816E-02   -2.46573E-02   -9.14146E-02    1.70061E-06
   86.099403  9.46822E-02   -2.46573E-02   -9.14152E-02    1.63575E-06
   87.263603  9.46827E-02   -2.46574E-02   -9.14157E-02    1.57342E-06
   88.443703  9.46832E-02   -2.46574E-02   -9.14162E-02    1.51295E-06
   89.639603  9.46837E-02   -2.46575E-02   -9.14167E-02    1.45523E-06
   90.851799  9.46842E-02   -2.46575E-02   -9.14173E-02    1.39932E-06
   92.080299  9.46847E-02   -2.46575E-02   -9.14177E-02    1.34530E-06
   93.325401  9.46852E-02   -2.46576E-02   -9.14182E-02    1.29374E-06
   94.587402  9.46857E-02   -2.46576E-02   -9.14187E-02    1.24373E-06
   95.866501  9.46861E-02   -2.46576E-02   -9.14192E-02    1.19567E-06
   97.162804  9.46866E-02   -2.46577E-02   -9.14196E-02    1.14975E-06
   98.476700  9.46870E-02   -2.46577E-02   -9.14201E-02    1.10521E-06
   99.808296  9.46874E-02   -2.46578E-02   -9.14205E-02    1.06202E-06
  101.157997  9.46879E-02   -2.46578E-02   -9.14209E-02    1.02091E-06
  102.526001  9.46883E-02   -2.46578E-02   -9.14213E-02    9.81159E-07
  103.912003  9.46887E-02   -2.46578E-02   -9.14217E-02    9.43195E-07
  105.317001  9.46891E-02   -2.46579E-02   -9.14221E-02    9.07145E-07
  106.741997  9.46894E-02   -2.46579E-02   -9.14225E-02    8.72189E-07
  108.184998  9.46898E-02   -2.46579E-02   -9.14229E-02    8.38292E-07
  109.648003  9.46902E-02   -2.46580E-02   -9.14233E-02    8.05421E-07
  111.130997  9.46905E-02   -2.46580E-02   -9.14236E-02    7.73549E-07
  112.633003  9.46909E-02   -2.46580E-02   -9.14240E-02    7.42649E-07
  114.155998  9.46912E-02   -2.46580E-02   -9.14243E-02    7.13868E-07
  115.699997  9.46915E-02   -2.46581E-02   -9.14246E-02    6.86023E-07
  117.264999  9.46918E-02   -2.46581E-02   -9.14250E-02    6.59024E-07
  118.849998  9.46921E-02   -2.46581E-02   -9.14253E-02    6.33208E-07
  120.457001  9.46925E-02   -2.46581E-02   -9.14256E-02    6.08558E-07
  122.085999  9.46928E-02   -2.46582E-02   -9.14259E-02    5.84656E-07
  123.737000  9.46930E-02   -2.46582E-02   -9.14262E-02    5.61485E-07
  125.410004  9.46933E-02   -2.46582E-02   -9.14265E-02    5.39847E-07
  127.106003  9.46936E-02   -2.46582E-02   -9.14268E-02    5.19007E-07
  128.824997  9.46939E-02   -2.46582E-02   -9.14270E-02    4.98800E-07
  130.567001  9.46941E-02   -2.46583E-02   -9.14273E-02    4.79210E-07
  132.332993  9.46944E-02   -2.46583E-02   -9.14276E-02    4.60218E-07
  134.121994  9.46946E-02   -2.46583E-02   -9.14278E-02    4.41807E-07
  135.936005  9.46949E-02   -2.46583E-02   -9.14281E-02    4.24491E-07
  137.774002  9.46951E-02   -2.46583E-02   -9.14283E-02    4.08196E-07
  139.636993  9.46954E-02   -2.46584E-02   -9.14285E-02    3.92397E-07
  141.524994  9.46956E-02   -2.46584E-02   -9.14288E-02    3.77079E-07
  143.438995  9.46958E-02   -2.46584E-02   -9.14290E-02    3.62230E-07
  145.378006  9.46960E-02   -2.46584E-02   -9.14292E-02    3.47836E-07
  147.343994  9.46962E-02   -2.46584E-02   -9.14294E-02    3.33885E-07
  149.337006  9.46964E-02   -2.46584E-02   -9.14296E-02    3.20363E-07
  151.356003  9.46966E-02   -2.46585E-02   -9.14298E-02    3.07971E-07
  153.403000  9.46968E-02   -2.46585E-02   -9.14300E-02    2.96297E-07
  155.477005  9.46970E-02   -2.46585E-02   -9.14302E-02    2.84977E-07
  157.580002  9.46972E-02   -2.46585E-02   -9.14304E-02    2.74002E-07
  159.710007  9.46974E-02   -2.46585E-02   -9.14306E-02    2.63362E-07
  161.869995  9.46976E-02   -2.46585E-02   -9.14308E-02    2.53048E-07
  164.059006  9.46977E-02   -2.46585E-02   -9.14310E-02    2.43049E-07
  166.276993  9.46979E-02   -2.46586E-02   -9.14311E-02    2.33358E-07
  168.526001  9.46981E-02   -2.46586E-02   -9.14313E-02    2.23965E-07
  170.804993  9.46982E-02   -2.46586E-02   -9.14314E-02    2.14863E-07
  173.113998  9.46984E-02   -2.46586E-02   -9.14316E-02    2.06042E-07
  175.455002  9.46985E-02   -2.46586E-02   -9.14318E-02    1.97647E-07
  177.828003  9.46987E-02   -2.46586E-02   -9.14319E-02    1.90125E-07
  180.233002  9.46988E-02   -2.46586E-02   -9.14321E-02    1.82833E-07
  182.669998  9.46990E-02   -2.46586E-02   -9.14322E-02    1.75762E-07
  185.139999  9.46991E-02   -2.46586E-02   -9.14323E-02    1.68908E-07
  187.643005  9.46992E-02   -2.46586E-02   -9.14325E-02    1.62265E-07
  190.181000  9.46993E-02   -2.46586E-02   -9.14326E-02    1.55825E-07
  192.753006  9.46995E-02   -2.46586E-02   -9.14327E-02    1.49583E-07
  195.358994  9.46996E-02   -2.46587E-02   -9.14329E-02    1.43535E-07
  198.001007  9.46997E-02   -2.46587E-02   -9.14330E-02    1.37673E-07
  200.677994  9.46998E-02   -2.46587E-02   -9.14331E-02    1.32108E-07
  203.391998  9.47000E-02   -2.46587E-02   -9.14332E-02    1.27055E-07
  206.141998  9.47001E-02   -2.46587E-02   -9.14333E-02    1.22155E-07
  208.929993  9.47002E-02   -2.46587E-02   -9.14334E-02    1.17405E-07
  211.755005  9.47003E-02   -2.46587E-02   -9.14335E-02    1.12800E-07
  214.617996  9.47004E-02   -2.46587E-02   -9.14336E-02    1.08337E-07
  217.520004  9.47005E-02   -2.46587E-02   -9.14337E-02    1.04011E-07
  220.462006  9.47006E-02   -2.46587E-02   -9.14338E-02    9.98190E-08
  223.442993  9.47007E-02   -2.46588E-02   -9.14339E-02    9.57562E-08
  226.464005  9.47008E-02   -2.46588E-02   -9.14340E-02    9.19386E-08
  229.526993  9.47009E-02   -2.46588E-02   -9.14341E-02    8.83665E-08
  232.630997  9.47009E-02   -2.46588E-02   -9.14342E-02    8.49038E-08
  235.776001  9.47010E-02   -2.46588E-02   -9.14343E-02    8.15471E-08
  238.964005  9.47011E-02   -2.46588E-02   -9.14344E-02    7.82942E-08
  242.195999  9.47012E-02   -2.46588E-02   -9.14345E-02    7.51738E-08
  245.470993  9.47013E-02   -2.46588E-02   -9.14345E-02    7.21645E-08
  248.789993  9.47014E-02   -2.46588E-02   -9.14346E-02    6.92176E-08
  252.154007  9.47014E-02   -2.46588E-02   -9.14347E-02    6.62519E-08
  255.563995  9.47015E-02   -2.46588E-02   -9.14347E-02    6.33684E-08
  259.019989  9.47016E-02   -2.46588E-02   -9.14348E-02    6.05759E-08
  262.523010  9.47016E-02   -2.46588E-02   -9.14349E-02    5.79406E-08
  266.072998  9.47017E-02   -2.46588E-02   -9.14350E-02    5.54141E-08
  269.670013  9.47018E-02   -2.46588E-02   -9.14350E-02    5.29677E-08
  273.316986  9.47018E-02   -2.46588E-02   -9.14351E-02    5.05990E-08
  277.013000  9.47019E-02   -2.46588E-02   -9.14352E-02    4.83999E-08
  280.759003  9.47019E-02   -2.46588E-02   -9.14352E-02    4.63454E-08
  284.554993  9.47020E-02   -2.46588E-02   -9.14353E-02    4.43558E-08
  288.403015  9.47021E-02   -2.46588E-02   -9.14353E-02    4.24292E-08
  292.303009  9.47021E-02   -2.46588E-02   -9.14354E-02    4.05637E-08
  296.256012  9.47022E-02   -2.46589E-02   -9.14354E-02    3.87576E-08
  300.261993  9.47022E-02   -2.46589E-02   -9.14355E-02    3.70233E-08
  304.321991  9.47023E-02   -2.46589E-02   -9.14355E-02    3.55332E-08
  308.437012  9.47023E-02   -2.46589E-02   -9.14356E-02    3.40894E-08
  312.608002  9.47024E-02   -2.46589E-02   -9.14357E-02    3.26905E-08
  316.834991  9.47024E-02   -2.46589E-02   -9.14357E-02    3.13356E-08
  321.119995  9.47025E-02   -2.46589E-02   -9.14358E-02    3.00230E-08
  325.462006  9.47025E-02   -2.46589E-02   -9.14358E-02    2.87518E-08
  329.863007  9.47026E-02   -2.46589E-02   -9.14359E-02    2.75207E-08
  334.322998  9.47026E-02   -2.46589E-02   -9.14359E-02    2.63286E-08
  338.843994  9.47027E-02   -2.46589E-02   -9.14360E-02    2.51742E-08
  343.425995  9.47027E-02   -2.46589E-02   -9.14360E-02    2.40567E-08
  348.070007  9.47027E-02   -2.46589E-02   -9.14360E-02    2.29749E-08
  352.777008  9.47028E-02   -2.46589E-02   -9.14361E-02    2.20488E-08
  357.546997  9.47028E-02   -2.46589E-02   -9.14361E-02    2.11756E-08
  362.381989  9.47028E-02   -2.46589E-02   -9.14361E-02    2.03295E-08
  367.282013  9.47029E-02   -2.46589E-02   -9.14362E-02    1.95096E-08
  372.248993  9.47029E-02   -2.46589E-02   -9.14362E-02    1.87153E-08
  377.282990  9.47030E-02   -2.46589E-02   -9.14363E-02    1.79457E-08
  382.384003  9.47030E-02   -2.46589E-02   -9.14363E-02    1.72003E-08
  387.554993  9.47030E-02   -2.46589E-02   -9.14363E-02    1.64783E-08
  392.795990  9.47030E-02   -2.46589E-02   -9.14363E-02    1.57789E-08
  398.106995  9.47031E-02   -2.46589E-02   -9.14364E-02    1.51017E-08
  403.490997  9.47031E-02   -2.46589E-02   -9.14364E-02    1.45141E-08
  408.946991  9.47031E-02   -2.46589E-02   -9.14364E-02    1.39524E-08
  414.476990  9.47032E-02   -2.46589E-02   -9.14365E-02    1.34079E-08
  420.080994  9.47032E-02   -2.46589E-02   -9.14365E-02    1.28803E-08
  425.761993  9.47032E-02   -2.46589E-02   -9.14365E-02    1.23689E-08
  431.519012  9.47032E-02   -2.46589E-02   -9.14365E-02    1.18734E-08
  437.354004  9.47033E-02   -2.46589E-02   -9.14366E-02    1.13934E-08
  443.268005  9.47033E-02   -2.46589E-02   -9.14366E-02    1.09282E-08
  449.261993  9.47033E-02   -2.46589E-02   -9.14366E-02    1.04827E-08
  455.337006  9.47033E-02   -2.46589E-02   -9.14366E-02    1.00892E-08
  461.494995  9.47034E-02   -2.46589E-02   -9.14367E-02    9.70770E-09
  467.734985  9.47034E-02   -2.46589E-02   -9.14367E-02    9.33785E-09
  474.059998  9.47034E-02   -2.46589E-02   -9.14367E-02    8.97930E-09
  480.470001  9.47034E-02   -2.46589E-02   -9.14367E-02    8.63175E-09
  486.967987  9.47034E-02   -2.46589E-02   -9.14367E-02    8.29492E-09
  493.552002  9.47035E-02   -2.46589E-02   -9.14368E-02    7.96844E-09
  500.226013  9.47035E-02   -2.46589E-02   -9.14368E-02    7.65318E-09
  506.990997  9.47035E-02   -2.46590E-02   -9.14368E-02    7.37183E-09
  513.846008  9.47035E-02   -2.46590E-02   -9.14368E-02    7.09895E-09
  520.794983  9.47035E-02   -2.46590E-02   -9.14368E-02    6.83434E-09
  527.836975  9.47036E-02   -2.46590E-02   -9.14369E-02    6.57773E-09
  534.974976  9.47036E-02   -2.46590E-02   -9.14369E-02    6.32904E-09
  542.208984  9.47036E-02   -2.46590E-02   -9.14369E-02    6.08786E-09
  549.541016  9.47036E-02   -2.46590E-02   -9.14369E-02    5.85715E-09
  556.971985  9.47036E-02   -2.46590E-02   -9.14369E-02    5.64599E-09
  564.504028  9.47036E-02   -2.46590E-02   -9.14369E-02    5.44120E-09
  572.137024  9.47037E-02   -2.46590E-02   -9.14370E-02    5.24257E-09
  579.874023  9.47037E-02   -2.46590E-02   -9.14370E-02    5.04990E-09
  587.715027  9.47037E-02   -2.46590E-02   -9.14370E-02    4.86306E-09
  595.661987  9.47037E-02   -2.46590E-02   -9.14370E-02    4.68193E-09
  603.716980  9.47037E-02   -2.46590E-02   -9.14370E-02    4.51195E-09
  611.880981  9.47037E-02   -2.46590E-02   -9.14370E-02    4.34942E-09
  620.155029  9.47037E-02   -2.46590E-02   -9.14370E-02    4.19197E-09
  628.541016  9.47038E-02   -2.46590E-02   -9.14371E-02    4.04261E-09
  637.039978  9.47038E-02   -2.46590E-02   -9.14371E-02    3.89773E-09
  645.653992  9.47038E-02   -2.46590E-02   -9.14371E-02    3.75991E-09
  654.385010  9.47038E-02   -2.46590E-02   -9.14371E-02    3.62648E-09
  663.234009  9.47038E-02   -2.46590E-02   -9.14371E-02    3.49839E-09
  672.202026  9.47038E-02   -2.46590E-02   -9.14371E-02    3.37503E-09
  681.291992  9.47038E-02   -2.46590E-02   -9.14371E-02    3.25619E-09
  690.505005  9.47038E-02   -2.46590E-02   -9.14371E-02    3.14248E-09
  699.841980  9.47038E-02   -2.46590E-02   -9.14371E-02    3.03207E-09
  709.306030  9.47038E-02   -2.46590E-02   -9.14371E-02    2.92820E-09
  718.896973  9.47038E-02   -2.46590E-02   -9.14371E-02    2.82747E-09
  728.617981  9.47038E-02   -2.46590E-02   -9.14372E-02    2.72968E-09
  738.471008  9.47038E-02   -2.46590E-02   -9.14372E-02    2.63488E-09
  748.456970  9.47039E-02   -2.46590E-02   -9.14372E-02    2.54284E-09
  758.578003  9.47039E-02   -2.46590E-02   -9.14372E-02    2.45590E-09
  768.835022  9.47039E-02   -2.46590E-02   -9.14372E-02    2.37180E-09
  779.231995  9.47039E-02   -2.46590E-02   -9.14372E-02    2.29029E-09
  789.768982  9.47039E-02   -2.46590E-02   -9.14372E-02    2.21120E-09
  800.447998  9.47039E-02   -2.46590E-02   -9.14372E-02    2.13520E-09
  811.271973  9.47039E-02   -2.46590E-02   -9.14372E-02    2.06315E-09
  822.242981  9.47039E-02   -2.46590E-02   -9.14372E-02    1.99333E-09
  833.361023  9.47039E-02   -2.46590E-02   -9.14372E-02    1.92555E-09
  844.630005  9.47039E-02   -2.46590E-02   -9.14373E-02    1.85976E-09
  856.052002  9.47040E-02   -2.46590E-02   -9.14373E-02    1.79585E-09
  867.627991  9.47040E-02   -2.46590E-02   -9.14373E-02    1.73382E-09
  879.359985  9.47040E-02   -2.46590E-02   -9.14373E-02    1.67373E-09
  891.250977  9.47040E-02   -2.46590E-02   -9.14373E-02    1.61539E-09
  903.302979  9.47040E-02   -2.46590E-02   -9.14373E-02    1.55935E-09
  915.518005  9.47040E-02   -2.46590E-02   -9.14373E-02    1.50670E-09
  927.898010  9.47040E-02   -2.46590E-02   -9.14373E-02    1.45553E-09
  940.445007  9.47040E-02   -2.46590E-02   -9.14373E-02    1.40591E-09
  953.161987  9.47040E-02   -2.46590E-02   -9.14373E-02    1.35776E-09
  966.051025  9.47040E-02   -2.46590E-02   -9.14373E-02    1.31100E-09
  979.114014  9.47040E-02   -2.46590E-02   -9.14373E-02    1.26562E-09
  992.354004  9.47040E-02   -2.46590E-02   -9.14373E-02    1.22154E-09
 1005.770020  9.47040E-02   -2.46590E-02   -9.14373E-02    1.17970E-09
 1019.369995  9.47040E-02   -2.46590E-02   -9.14373E-02    1.14029E-09
 1033.160034  9.47040E-02   -2.46590E-02   -9.14373E-02    1.10208E-09
 1047.130005  9.47040E-02   -2.46590E-02   -9.14373E-02    1.06490E-09
 1061.290039  9.47040E-02   -2.46590E-02   -9.14373E-02    1.02897E-09
 1075.640015  9.47040E-02   -2.46590E-02   -9.14373E-02    9.93859E-10
 1090.180054  9.47040E-02   -2.46590E-02   -9.14373E-02    9.59969E-10
 1104.930054  9.47040E-02   -2.46590E-02   -9.14374E-02    9.26995E-10
 1119.869995  9.47040E-02   -2.46590E-02   -9.14374E-02    8.95026E-10
 1135.010010  9.47041E-02   -2.46590E-02   -9.14374E-02    8.64041E-10
 1150.359985  9.47041E-02   -2.46590E-02   -9.14374E-02    8.33901E-10
 1165.910034  9.47041E-02   -2.46590E-02   -9.14374E-02    8.04678E-10
 1181.680054  9.47041E-02   -2.46590E-02   -9.14374E-02    7.76377E-10
 1197.660034  9.47041E-02   -2.46590E-02   -9.14374E-02    7.48825E-10
 1213.849976  9.47041E-02   -2.46590E-02   -9.14374E-02    7.23137E-10
 1230.270020  9.47041E-02   -2.46590E-02   -9.14374E-02    6.98290E-10
 1246.900024  9.47041E-02   -2.46590E-02   -9.14374E-02    6.74563E-10
 1263.770020  9.47041E-02   -2.46590E-02   -9.14374E-02    6.52117E-10
 1280.859985  9.47041E-02   -2.46590E-02   -9.14374E-02    6.30451E-10
 1298.180054  9.47041E-02   -2.46590E-02   -9.14374E-02    6.09096E-10
 1315.729980  9.47041E-02   -2.46590E-02   -9.14374E-02    5.88536E-10
 1333.520020  9.47041E-02   -2.46590E-02   -9.14374E-02    5.68507E-10
 1351.550049  9.47041E-02   -2.46590E-02   -9.14374E-02    5.49243E-10
 1369.829956  9.47041E-02   -2.46590E-02   -9.14374E-02    5.30419E-10
 1388.349976  9.47041E-02   -2.46590E-02   -9.14374E-02    5.12025E-10
 1407.130005  9.47041E-02   -2.46590E-02   -9.14374E-02    4.94300E-10
 1426.150024  9.47041E-02   -2.46590E-02   -9.14374E-02    4.77198E-10
 1445.439941  9.47041E-02   -2.46590E-02   -9.14374E-02    4.60540E-10
 1464.989990  9.47041E-02   -2.46590E-02   -9.14374E-02    4.44344E-10
 1484.800049  9.47041E-02   -2.46590E-02   -9.14374E-02    4.28698E-10
 1504.869995  9.47041E-02   -2.46590E-02   -9.14374E-02    4.13672E-10
 1525.219971  9.47041E-02   -2.46590E-02   -9.14374E-02    4.00095E-10
 1545.849976  9.47041E-02   -2.46590E-02   -9.14374E-02    3.87154E-10
 1566.750000  9.47041E-02   -2.46590E-02   -9.14374E-02    3.74106E-10
 1587.939941  9.47041E-02   -2.46590E-02   -9.14374E-02    3.61778E-10
 1609.410034  9.47041E-02   -2.46590E-02   -9.14374E-02    3.49734E-10
 1631.170044  9.47041E-02   -2.46590E-02   -9.14374E-02    3.38017E-10
 1653.229980  9.47041E-02   -2.46590E-02   -9.14374E-02    3.26603E-10
 1675.589966  9.47041E-02   -2.46590E-02   -9.14374E-02    3.15555E-10
 1698.239990  9.47041E-02   -2.46590E-02   -9.14374E-02    3.04907E-10
 1721.209961  9.47041E-02   -2.46590E-02   -9.14374E-02    2.94571E-10
 1744.479980  9.47041E-02   -2.46590E-02   -9.14374E-02    2.84474E-10
 1768.069946  9.47041E-02   -2.46590E-02   -9.14374E-02    2.74602E-10
 1791.979980  9.47041E-02   -2.46590E-02   -9.14374E-02    2.65156E-10
 1816.209961  9.47041E-02   -2.46590E-02   -9.14374E-02    2.56125E-10
 1840.770020  9.47041E-02   -2.46590E-02   -9.14375E-02    2.46908E-10
 1865.660034  9.47041E-02   -2.46590E-02   -9.14375E-02    2.38338E-10
 1890.890015  9.47041E-02   -2.46590E-02   -9.14375E-02    2.29940E-10
 1916.459961  9.47041E-02   -2.46590E-02   -9.14375E-02    2.21778E-10
 1942.380005  9.47041E-02   -2.46590E-02   -9.14375E-02    2.13768E-10
 1968.640015  9.47041E-02   -2.46590E-02   -9.14375E-02    2.06124E-10
 1995.260010  9.47041E-02   -2.46590E-02   -9.14375E-02    1.98525E-10
 2022.239990  9.47041E-02   -2.46590E-02   -9.14375E-02    1.91849E-10
 2049.590088  9.47041E-02   -2.46590E-02   -9.14375E-02    1.85730E-10
 2077.300049  9.47041E-02   -2.46590E-02   -9.14375E-02    1.79543E-10
 2105.389893  9.47041E-02   -2.46590E-02   -9.14375E-02    1.73358E-10
 2133.860107  9.47041E-02   -2.46590E-02   -9.14375E-02    1.67481E-10
 2162.719971  9.47041E-02   -2.46590E-02   -9.14375E-02    1.61536E-10
 2191.959961  9.47041E-02   -2.46590E-02   -9.14375E-02    1.56336E-10
 2221.600098  9.47042E-02   -2.46590E-02   -9.14375E-02    1.51040E-10
 2251.649902  9.47042E-02   -2.46590E-02   -9.14375E-02    1.45623E-10
 2282.090088  9.47042E-02   -2.46590E-02   -9.14375E-02    1.40744E-10
 2312.949951  9.47042E-02   -2.46590E-02   -9.14375E-02    1.35659E-10
 2344.229980  9.47042E-02   -2.46590E-02   -9.14375E-02    1.31212E-10
 2375.929932  9.47042E-02   -2.46590E-02   -9.14375E-02    1.26821E-10
 2408.060059  9.47042E-02   -2.46590E-02   -9.14375E-02    1.22181E-10
 2440.620117  9.47042E-02   -2.46590E-02   -9.14375E-02    1.17974E-10
 2473.620117  9.47042E-02   -2.46590E-02   -9.14375E-02    1.13495E-10
 2507.070068  9.47042E-02   -2.46590E-02   -9.14375E-02    1.09805E-10
 2540.969971  9.47042E-02   -2.46590E-02   -9.14375E-02    1.06102E-10
 2575.330078  9.47042E-02   -2.46590E-02   -9.14375E-02    1.02332E-10
 2610.159912  9.47042E-02   -2.46590E-02   -9.14375E-02    9.89998E-11
 2645.449951  9.47042E-02   -2.46590E-02   -9.14375E-02    9.60010E-11
 2681.229980  9.47042E-02   -2.46590E-02   -9.14375E-02    9.23348E-11
 2717.479980  9.47042E-02   -2.46590E-02   -9.14375E-02    8.92620E-11
 2754.229980  9.47042E-02   -2.46590E-02   -9.14375E-02    8.62452E-11
 2791.469971  9.47042E-02   -2.46590E-02   -9.14375E-02    8.34072E-11
 2829.219971  9.47042E-02   -2.46590E-02   -9.14375E-02    8.02507E-11
 2867.479980  9.47042E-02   -2.46590E-02   -9.14375E-02    7.78218E-11
 2906.250000  9.47042E-02   -2.46590E-02   -9.14375E-02    7.47774E-11
 2945.550049  9.47042E-02   -2.46590E-02   -9.14375E-02    7.23294E-11
 2985.379883  9.47042E-02   -2.46590E-02   -9.14375E-02    6.97804E-11
 3025.750000  9.47042E-02   -2.46590E-02   -9.14375E-02    6.72358E-11
 3066.669922  9.47042E-02   -2.46590E-02   -9.14375E-02    6.48736E-11
 3108.139893  9.47042E-02   -2.46590E-02   -9.14375E-02    6.31107E-11
 3150.169922  9.47042E-02   -2.46590E-02   -9.14375E-02    6.08524E-11
 3192.760010  9.47042E-02   -2.46590E-02   -9.14375E-02    5.87012E-11
 3235.939941  9.47042E-02   -2.46590E-02   -9.14375E-02    5.69426E-11
 3279.689941  9.47042E-02   -2.46590E-02   -9.14375E-02    5.50753E-11
 3324.040039  9.47042E-02   -2.46590E-02   -9.14375E-02    5.28957E-11
 3368.989990  9.47042E-02   -2.46590E-02   -9.14375E-02    5.18453E-11
 3414.550049  9.47042E-02   -2.46590E-02   -9.14375E-02    4.98226E-11
 3460.719971  9.47042E-02   -2.46590E-02   -9.14375E-02    4.80439E-11
 3507.520020  9.47042E-02   -2.46590E-02   -9.14375E-02    4.63589E-11
 3554.949951  9.47042E-02   -2.46590E-02   -9.14375E-02    4.40576E-11
 3603.020020  9.47042E-02   -2.46590E-02   -9.14375E-02    4.31600E-11
 3651.739990  9.47042E-02   -2.46590E-02   -9.14375E-02    4.16551E-11
 3701.120117  9.47042E-02   -2.46590E-02   -9.14375E-02    4.02792E-11
 3751.169922  9.47042E-02   -2.46590E-02   -9.14375E-02    3.87295E-11
 3801.889893  9.47042E-02   -2.46590E-02   -9.14375E-02    3.77328E-11
 3853.300049  9.47042E-02   -2.46590E-02   -9.14375E-02    3.60177E-11
 3905.409912  9.47042E-02   -2.46590E-02   -9.14375E-02    3.47337E-11
 3958.219971  9.47042E-02   -2.46590E-02   -9.14375E-02    3.33128E-11
 4011.750000  9.47042E-02   -2.46590E-02   -9.14375E-02    3.28178E-11
 4065.989990  9.47042E-02   -2.46590E-02   -9.14375E-02    3.09587E-11
 4120.979980  9.47042E-02   -2.46590E-02   -9.14375E-02    2.98918E-11
 4176.700195  9.47042E-02   -2.46590E-02   -9.14375E-02    2.91282E-11
 4233.180176  9.47042E-02   -2.46590E-02   -9.14375E-02    2.83778E-11
 4290.419922  9.47042E-02   -2.46590E-02   -9.14375E-02    2.71984E-11
 4348.439941  9.47042E-02   -2.46590E-02   -9.14375E-02    2.63694E-11
 4407.240234  9.47042E-02   -2.46590E-02   -9.14375E-02    2.55045E-11
 4466.839844  9.47042E-02   -2.46590E-02   -9.14375E-02    2.46381E-11
 4527.240234  9.47042E-02   -2.46590E-02   -9.14375E-02    2.32614E-11
 4588.459961  9.47042E-02   -2.46590E-02   -9.14375E-02    2.31536E-11
 4650.500000  9.47042E-02   -2.46590E-02   -9.14375E-02    2.15674E-11
 4713.390137  9.47042E-02   -2.46590E-02   -9.14375E-02    2.17641E-11
 4777.129883  9.47042E-02   -2.46590E-02   -9.14375E-02    2.04284E-11
 4841.720215  9.47042E-02   -2.46590E-02   -9.14375E-02    1.97906E-11
 4907.200195  9.47042E-02   -2.46590E-02   -9.14375E-02    1.86554E-11
 4973.549805  9.47042E-02   -2.46590E-02   -9.14375E-02    1.84597E-11
 5040.810059  9.47042E-02   -2.46590E-02   -9.14375E-02    1.81491E-11
 5108.970215  9.47042E-02   -2.46590E-02   -9.14375E-02    1.69394E-11
 5178.060059  9.47042E-02   -2.46590E-02   -9.14375E-02    1.67159E-11
 5248.069824  9.47042E-02   -2.46590E-02   -9.14375E-02    1.58317E-11
 5319.040039  9.47042E-02   -2.46590E-02   -9.14375E-02    1.55345E-11
 5390.970215  9.47042E-02   -2.46590E-02   -9.14375E-02    1.47301E-11
 5463.870117  9.47042E-02   -2.46590E-02   -9.14375E-02    1.44919E-11
 5537.750000  9.47042E-02   -2.46590E-02   -9.14375E-02    1.39125E-11
 5612.629883  9.47042E-02   -2.46590E-02   -9.14375E-02    1.34997E-11
 5688.529785  9.47042E-02   -2.46590E-02   -9.14375E-02    1.26886E-11
 5765.450195  9.47042E-02   -2.46590E-02   -9.14375E-02    1.24323E-11
 5843.410156  9.47042E-02   -2.46590E-02   -9.14375E-02    1.17328E-11
 5922.430176  9.47042E-02   -2.46590E-02   -9.14375E-02    1.16553E-11
 6002.520020  9.47042E-02   -2.46590E-02   -9.14375E-02    1.15750E-11
 6083.680176  9.47042E-02   -2.46590E-02   -9.14375E-02    1.05795E-11
 6165.950195  9.47042E-02   -2.46590E-02   -9.14375E-02    1.07493E-11
 6249.330078  9.47042E-02   -2.46590E-02   -9.14375E-02    1.05732E-11
 6333.830078  9.47042E-02   -2.46590E-02   -9.14375E-02    8.91820E-12
 6419.479980  9.47042E-02   -2.46590E-02   -9.14375E-02    9.20181E-12
 6506.290039  9.47042E-02   -2.46590E-02   -9.14375E-02    8.96208E-12
 6594.270020  9.47042E-02   -2.46590E-02   -9.14375E-02    8.88061E-12
 6683.439941  9.47042E-02   -2.46590E-02   -9.14375E-02    8.58342E-12
 6773.819824  9.47042E-02   -2.46590E-02   -9.14375E-02    7.95307E-12
 6865.410156  9.47042E-02   -2.46590E-02   -9.14375E-02    8.38457E-12
 6958.250000  9.47042E-02   -2.46590E-02   -9.14375E-02    8.76608E-12
 7052.339844  9.47042E-02   -2.46590E-02   -9.14375E-02    7.18585E-12
 7147.709961  9.47042E-02   -2.46590E-02   -9.14375E-02    6.52323E-12
 7244.359863  9.47042E-02   -2.46590E-02   -9.14375E-02    7.70081E-12
 7342.319824  9.47042E-02   -2.46590E-02   -9.14375E-02    6.14902E-12
 7441.609863  9.47042E-02   -2.46590E-02   -9.14375E-02    5.54809E-12
 7542.229980  9.47042E-02   -2.46590E-02   -9.14375E-02    5.59027E-12
 7644.220215  9.47042E-02   -2.46590E-02   -9.14375E-02    5.77980E-12
 7747.589844  9.47042E-02   -2.46590E-02   -9.14375E-02    4.86641E-12
 7852.359863  9.47042E-02   -2.46590E-02   -9.14375E-02    5.24950E-12
 7958.540039  9.47042E-02   -2.46590E-02   -9.14375E-02    5.53959E-12
 8066.160156  9.47042E-02   -2.46590E-02   -9.14375E-02    5.66675E-12
 8175.229980  9.47042E-02   -2.46590E-02   -9.14375E-02    4.01002E-12
 8285.780273  9.47042E-02   -2.46590E-02   -9.14375E-02    3.89233E-12
 8397.820312  9.47042E-02   -2.46590E-02   -9.14375E-02    2.86604E-12
 8511.379883  9.47042E-02   -2.46590E-02   -9.14375E-02    5.59012E-12
 8626.469727  9.47042E-02   -2.46590E-02   -9.14375E-02    4.37005E-12
 8743.120117  9.47042E-02   -2.46590E-02   -9.14375E-02    4.82966E-12
 8861.349609  9.47042E-02   -2.46590E-02   -9.14375E-02    6.83824E-12
 8981.179688  9.47042E-02   -2.46590E-02   -9.14375E-02    5.25928E-12
 9102.629883  9.47042E-02   -2.46590E-02   -9.14375E-02    3.82322E-12
 9225.709961  9.47042E-02   -2.46590E-02   -9.14375E-02    4.65370E-12
 9350.469727  9.47042E-02   -2.46590E-02   -9.14375E-02    3.94743E-12
 9476.910156  9.47042E-02   -2.46590E-02   -9.14375E-02    3.51576E-12
 9605.059570  9.47042E-02   -2.46590E-02   -9.14375E-02    4.53293E-12
 9734.940430  9.47042E-02   -2.46590E-02   -9.14375E-02    3.52742E-12
 9866.580078  9.47042E-02   -2.46590E-02   -9.14375E-02    1.44325E-12
10000.000000  9.47042E-02   -2.46590E-02   -9.14375E-02    3.33607E-12
